/////////////////////////////////////////////////////////////////////////////////
/// Profile Data Ascii Dump (XRD)                                             ///
/////////////////////////////////////////////////////////////////////////////////

  Group     : Swayze
  Data      : GDS113
  File Name : GDS113.RAW

# Profile Datafile
          comment             = Muscovite 
          date & time         = 08-04-09 07:20:19 

# Measurement Condition
    X-ray tube
          target              = Cu 
          voltage             = 40.0 (kV)
          current             = 30.0 (mA)
    Slits
          divergence slit     = 2.00000 (deg) 
          scatter slit        = 2.00000 (deg) 
          receiving slit      = 0.15000 (mm)  
    Scanning
          drive axis          = Theta-2Theta 
          scan range          =    4.000 -   65.000 
          scan mode           = Continuous Scan 
          scan speed          =   2.0000 (deg/min) 
          sampling pitch      =   0.0200 (deg) 
          preset time         =   0.60 (sec) 

# Data      [ Total No. = 3051 ]
  <2Theta>   <   I   >
     4.0000       200
     4.0200       192
     4.0400       176
     4.0600       206
     4.0800       190
     4.1000       194
     4.1200       178
     4.1400       190
     4.1600       178
     4.1800       198
     4.2000       188
     4.2200       196
     4.2400       174
     4.2600       204
     4.2800       170
     4.3000       202
     4.3200       182
     4.3400       176
     4.3600       170
     4.3800       192
     4.4000       176
     4.4200       176
     4.4400       190
     4.4600       202
     4.4800       182
     4.5000       182
     4.5200       188
     4.5400       178
     4.5600       176
     4.5800       186
     4.6000       186
     4.6200       170
     4.6400       164
     4.6600       160
     4.6800       180
     4.7000       172
     4.7200       158
     4.7400       148
     4.7600       196
     4.7800       166
     4.8000       170
     4.8200       154
     4.8400       142
     4.8600       168
     4.8800       162
     4.9000       158
     4.9200       156
     4.9400       160
     4.9600       148
     4.9800       164
     5.0000       186
     5.0200       146
     5.0400       162
     5.0600       170
     5.0800       160
     5.1000       162
     5.1200       158
     5.1400       152
     5.1600       156
     5.1800       158
     5.2000       148
     5.2200       158
     5.2400       180
     5.2600       164
     5.2800       150
     5.3000       170
     5.3200       168
     5.3400       160
     5.3600       166
     5.3800       158
     5.4000       162
     5.4200       136
     5.4400       160
     5.4600       160
     5.4800       162
     5.5000       152
     5.5200       170
     5.5400       160
     5.5600       148
     5.5800       164
     5.6000       128
     5.6200       174
     5.6400       156
     5.6600       172
     5.6800       192
     5.7000       152
     5.7200       170
     5.7400       138
     5.7600       180
     5.7800       164
     5.8000       148
     5.8200       174
     5.8400       156
     5.8600       158
     5.8800       166
     5.9000       146
     5.9200       144
     5.9400       166
     5.9600       142
     5.9800       142
     6.0000       150
     6.0200       160
     6.0400       174
     6.0600       168
     6.0800       162
     6.1000       178
     6.1200       148
     6.1400       148
     6.1600       164
     6.1800       142
     6.2000       142
     6.2200       158
     6.2400       148
     6.2600       152
     6.2800       160
     6.3000       138
     6.3200       156
     6.3400       160
     6.3600       140
     6.3800       146
     6.4000       144
     6.4200       148
     6.4400       148
     6.4600       140
     6.4800       146
     6.5000       124
     6.5200       168
     6.5400       128
     6.5600       122
     6.5800       150
     6.6000       142
     6.6200       130
     6.6400       136
     6.6600       126
     6.6800       122
     6.7000       120
     6.7200       142
     6.7400       112
     6.7600       140
     6.7800       122
     6.8000       126
     6.8200       138
     6.8400       120
     6.8600       128
     6.8800       144
     6.9000       130
     6.9200       120
     6.9400       130
     6.9600       108
     6.9800       134
     7.0000       110
     7.0200       118
     7.0400       108
     7.0600       134
     7.0800       122
     7.1000       114
     7.1200       104
     7.1400       120
     7.1600       114
     7.1800       128
     7.2000       104
     7.2200       112
     7.2400       106
     7.2600       138
     7.2800       122
     7.3000       108
     7.3200       124
     7.3400       136
     7.3600       120
     7.3800       134
     7.4000       148
     7.4200       128
     7.4400       110
     7.4600       120
     7.4800       136
     7.5000       138
     7.5200       124
     7.5400       126
     7.5600       132
     7.5800       134
     7.6000       142
     7.6200       140
     7.6400       118
     7.6600       132
     7.6800       126
     7.7000       110
     7.7200       104
     7.7400       124
     7.7600       128
     7.7800       118
     7.8000       122
     7.8200       122
     7.8400       132
     7.8600       102
     7.8800       134
     7.9000       134
     7.9200       116
     7.9400       152
     7.9600       116
     7.9800       142
     8.0000       150
     8.0200       136
     8.0400       134
     8.0600       150
     8.0800       144
     8.1000       126
     8.1200       142
     8.1400       158
     8.1600       142
     8.1800       158
     8.2000       174
     8.2200       156
     8.2400       160
     8.2600       172
     8.2800       146
     8.3000       208
     8.3200       186
     8.3400       230
     8.3600       254
     8.3800       260
     8.4000       310
     8.4200       382
     8.4400       376
     8.4600       376
     8.4800       458
     8.5000       488
     8.5200       512
     8.5400       602
     8.5600       616
     8.5800       742
     8.6000       834
     8.6200       952
     8.6400      1102
     8.6600      1430
     8.6800      1684
     8.7000      2044
     8.7200      2836
     8.7400      4162
     8.7600      6308
     8.7800      8638
     8.8000     10254
     8.8200      9194
     8.8400      6936
     8.8600      4240
     8.8800      2322
     8.9000      1342
     8.9200       670
     8.9400       422
     8.9600       352
     8.9800       316
     9.0000       278
     9.0200       268
     9.0400       246
     9.0600       232
     9.0800       202
     9.1000       186
     9.1200       174
     9.1400       158
     9.1600       120
     9.1800       150
     9.2000       120
     9.2200       128
     9.2400       124
     9.2600       112
     9.2800       136
     9.3000       134
     9.3200       108
     9.3400       100
     9.3600       124
     9.3800       112
     9.4000       130
     9.4200       134
     9.4400       104
     9.4600       106
     9.4800       112
     9.5000       118
     9.5200       110
     9.5400       112
     9.5600       112
     9.5800        84
     9.6000       122
     9.6200       132
     9.6400       114
     9.6600       116
     9.6800       112
     9.7000       106
     9.7200        94
     9.7400        98
     9.7600        98
     9.7800        94
     9.8000       102
     9.8200       112
     9.8400       100
     9.8600       104
     9.8800        84
     9.9000       114
     9.9200       106
     9.9400       118
     9.9600       100
     9.9800       116
    10.0000       106
    10.0200       114
    10.0400       114
    10.0600       106
    10.0800       106
    10.1000       118
    10.1200       104
    10.1400        98
    10.1600        90
    10.1800       114
    10.2000        90
    10.2200       108
    10.2400       110
    10.2600       108
    10.2800       108
    10.3000       106
    10.3200       110
    10.3400        80
    10.3600       104
    10.3800        98
    10.4000       120
    10.4200        98
    10.4400        90
    10.4600        96
    10.4800       104
    10.5000        82
    10.5200        98
    10.5400       106
    10.5600        96
    10.5800       110
    10.6000        86
    10.6200       106
    10.6400       108
    10.6600       116
    10.6800        92
    10.7000        76
    10.7200        84
    10.7400        78
    10.7600        84
    10.7800       110
    10.8000       108
    10.8200        96
    10.8400        86
    10.8600        90
    10.8800        98
    10.9000       106
    10.9200        88
    10.9400        94
    10.9600        86
    10.9800        84
    11.0000        86
    11.0200        84
    11.0400        74
    11.0600        74
    11.0800        76
    11.1000        98
    11.1200        92
    11.1400        78
    11.1600        84
    11.1800       100
    11.2000       100
    11.2200        80
    11.2400        86
    11.2600        94
    11.2800        72
    11.3000        80
    11.3200        78
    11.3400        92
    11.3600        74
    11.3800        92
    11.4000        78
    11.4200        68
    11.4400        66
    11.4600        98
    11.4800        76
    11.5000        86
    11.5200        88
    11.5400        96
    11.5600        80
    11.5800        76
    11.6000        74
    11.6200        82
    11.6400        66
    11.6600        82
    11.6800        80
    11.7000        88
    11.7200        86
    11.7400        92
    11.7600        70
    11.7800        82
    11.8000        84
    11.8200        74
    11.8400        66
    11.8600        68
    11.8800        62
    11.9000        86
    11.9200        94
    11.9400        64
    11.9600        96
    11.9800        80
    12.0000        80
    12.0200        76
    12.0400        68
    12.0600        72
    12.0800        80
    12.1000        70
    12.1200        78
    12.1400        90
    12.1600        64
    12.1800        88
    12.2000        78
    12.2200        74
    12.2400        78
    12.2600        72
    12.2800        88
    12.3000        80
    12.3200        66
    12.3400        82
    12.3600        64
    12.3800        80
    12.4000        64
    12.4200        80
    12.4400        66
    12.4600        74
    12.4800        64
    12.5000        74
    12.5200        64
    12.5400        84
    12.5600        62
    12.5800        72
    12.6000        72
    12.6200        66
    12.6400        76
    12.6600        84
    12.6800        76
    12.7000        70
    12.7200        78
    12.7400        82
    12.7600        52
    12.7800        88
    12.8000        94
    12.8200        70
    12.8400        64
    12.8600        80
    12.8800        76
    12.9000        56
    12.9200        74
    12.9400        78
    12.9600        56
    12.9800        72
    13.0000        86
    13.0200        98
    13.0400        84
    13.0600        82
    13.0800        68
    13.1000        86
    13.1200        64
    13.1400        70
    13.1600        64
    13.1800        84
    13.2000        66
    13.2200        86
    13.2400        78
    13.2600        70
    13.2800        58
    13.3000        70
    13.3200        70
    13.3400        70
    13.3600        66
    13.3800        74
    13.4000        72
    13.4200        58
    13.4400        82
    13.4600        76
    13.4800        60
    13.5000        74
    13.5200        60
    13.5400        62
    13.5600        78
    13.5800        58
    13.6000        68
    13.6200        76
    13.6400        72
    13.6600        62
    13.6800        54
    13.7000        54
    13.7200        66
    13.7400        82
    13.7600        70
    13.7800        58
    13.8000        74
    13.8200        74
    13.8400        66
    13.8600        60
    13.8800        60
    13.9000        74
    13.9200        84
    13.9400        68
    13.9600        58
    13.9800        62
    14.0000        60
    14.0200        62
    14.0400        72
    14.0600        68
    14.0800        50
    14.1000        74
    14.1200        54
    14.1400        56
    14.1600        62
    14.1800        66
    14.2000        64
    14.2200        66
    14.2400        56
    14.2600        74
    14.2800        76
    14.3000        78
    14.3200        66
    14.3400        96
    14.3600        70
    14.3800        50
    14.4000        60
    14.4200        78
    14.4400        62
    14.4600        74
    14.4800        62
    14.5000        70
    14.5200        52
    14.5400        76
    14.5600        78
    14.5800        66
    14.6000        60
    14.6200        60
    14.6400        50
    14.6600        64
    14.6800        58
    14.7000        66
    14.7200        72
    14.7400        62
    14.7600        56
    14.7800        78
    14.8000        60
    14.8200        60
    14.8400        68
    14.8600        66
    14.8800        72
    14.9000        78
    14.9200        70
    14.9400        70
    14.9600        62
    14.9800        60
    15.0000        70
    15.0200        64
    15.0400        74
    15.0600        74
    15.0800        62
    15.1000        62
    15.1200        58
    15.1400        78
    15.1600        84
    15.1800        60
    15.2000        68
    15.2200        62
    15.2400        50
    15.2600        62
    15.2800        58
    15.3000        56
    15.3200        54
    15.3400        72
    15.3600        62
    15.3800        64
    15.4000        62
    15.4200        56
    15.4400        60
    15.4600        64
    15.4800        66
    15.5000        86
    15.5200        62
    15.5400        34
    15.5600        58
    15.5800        58
    15.6000        48
    15.6200        50
    15.6400        52
    15.6600        50
    15.6800        62
    15.7000        68
    15.7200        68
    15.7400        52
    15.7600        76
    15.7800        60
    15.8000        56
    15.8200        50
    15.8400        54
    15.8600        70
    15.8800        66
    15.9000        62
    15.9200        68
    15.9400        76
    15.9600        68
    15.9800        86
    16.0000        80
    16.0200        72
    16.0400        52
    16.0600        70
    16.0800        54
    16.1000        58
    16.1200        64
    16.1400        72
    16.1600        62
    16.1800        54
    16.2000        60
    16.2200        64
    16.2400        70
    16.2600        66
    16.2800        66
    16.3000        58
    16.3200        64
    16.3400        70
    16.3600        60
    16.3800        52
    16.4000        40
    16.4200        52
    16.4400        58
    16.4600        62
    16.4800        70
    16.5000        62
    16.5200        56
    16.5400        56
    16.5600        50
    16.5800        70
    16.6000        62
    16.6200        68
    16.6400        66
    16.6600        66
    16.6800        66
    16.7000        64
    16.7200        72
    16.7400        66
    16.7600        66
    16.7800        66
    16.8000        66
    16.8200       100
    16.8400        68
    16.8600        72
    16.8800        78
    16.9000        72
    16.9200        62
    16.9400        80
    16.9600        68
    16.9800        54
    17.0000        96
    17.0200        80
    17.0400        70
    17.0600        72
    17.0800        82
    17.1000        88
    17.1200        82
    17.1400        84
    17.1600        92
    17.1800        90
    17.2000       106
    17.2200       110
    17.2400       120
    17.2600       138
    17.2800       136
    17.3000       144
    17.3200       158
    17.3400       160
    17.3600       212
    17.3800       214
    17.4000       294
    17.4200       286
    17.4400       284
    17.4600       366
    17.4800       446
    17.5000       496
    17.5200       590
    17.5400       752
    17.5600       988
    17.5800      1230
    17.6000      1734
    17.6200      2436
    17.6400      3206
    17.6600      4358
    17.6800      5386
    17.7000      5558
    17.7200      5092
    17.7400      4034
    17.7600      2782
    17.7800      1720
    17.8000      1002
    17.8200       570
    17.8400       364
    17.8600       246
    17.8800       222
    17.9000       170
    17.9200       162
    17.9400       140
    17.9600       144
    17.9800       144
    18.0000       110
    18.0200       108
    18.0400        80
    18.0600        74
    18.0800        60
    18.1000        72
    18.1200        68
    18.1400        68
    18.1600        64
    18.1800        72
    18.2000        74
    18.2200        72
    18.2400        64
    18.2600        62
    18.2800        68
    18.3000        94
    18.3200        74
    18.3400        52
    18.3600        64
    18.3800        62
    18.4000        58
    18.4200        60
    18.4400        62
    18.4600        60
    18.4800        68
    18.5000        54
    18.5200        52
    18.5400        44
    18.5600        62
    18.5800        54
    18.6000        76
    18.6200        54
    18.6400        48
    18.6600        54
    18.6800        38
    18.7000        48
    18.7200        44
    18.7400        54
    18.7600        58
    18.7800        64
    18.8000        56
    18.8200        52
    18.8400        48
    18.8600        58
    18.8800        42
    18.9000        54
    18.9200        60
    18.9400        60
    18.9600        54
    18.9800        50
    19.0000        40
    19.0200        48
    19.0400        54
    19.0600        50
    19.0800        56
    19.1000        48
    19.1200        50
    19.1400        56
    19.1600        48
    19.1800        56
    19.2000        60
    19.2200        44
    19.2400        42
    19.2600        64
    19.2800        60
    19.3000        68
    19.3200        44
    19.3400        42
    19.3600        58
    19.3800        72
    19.4000        60
    19.4200        64
    19.4400        70
    19.4600        62
    19.4800        84
    19.5000        72
    19.5200        80
    19.5400        78
    19.5600        92
    19.5800        94
    19.6000       116
    19.6200        94
    19.6400       124
    19.6600       138
    19.6800       120
    19.7000       144
    19.7200       138
    19.7400       170
    19.7600       144
    19.7800       166
    19.8000       168
    19.8200       128
    19.8400       148
    19.8600       146
    19.8800       110
    19.9000       108
    19.9200        92
    19.9400        74
    19.9600        64
    19.9800        96
    20.0000        62
    20.0200        76
    20.0400        76
    20.0600        78
    20.0800        56
    20.1000        62
    20.1200        62
    20.1400        54
    20.1600        64
    20.1800        64
    20.2000        64
    20.2200        50
    20.2400        62
    20.2600        44
    20.2800        60
    20.3000        60
    20.3200        68
    20.3400        68
    20.3600        58
    20.3800        54
    20.4000        70
    20.4200        72
    20.4400        62
    20.4600        62
    20.4800        72
    20.5000        58
    20.5200        74
    20.5400        76
    20.5600        68
    20.5800        66
    20.6000        64
    20.6200        66
    20.6400        62
    20.6600        70
    20.6800        70
    20.7000        66
    20.7200        70
    20.7400        54
    20.7600        48
    20.7800        46
    20.8000        62
    20.8200        38
    20.8400        48
    20.8600        50
    20.8800        50
    20.9000        64
    20.9200        50
    20.9400        58
    20.9600        40
    20.9800        44
    21.0000        54
    21.0200        54
    21.0400        44
    21.0600        66
    21.0800        50
    21.1000        50
    21.1200        40
    21.1400        42
    21.1600        54
    21.1800        48
    21.2000        50
    21.2200        52
    21.2400        52
    21.2600        48
    21.2800        50
    21.3000        70
    21.3200        60
    21.3400        54
    21.3600        54
    21.3800        64
    21.4000        62
    21.4200        62
    21.4400        74
    21.4600        70
    21.4800        94
    21.5000        92
    21.5200        88
    21.5400        82
    21.5600        74
    21.5800        82
    21.6000        64
    21.6200        64
    21.6400        60
    21.6600        48
    21.6800        52
    21.7000        54
    21.7200        48
    21.7400        48
    21.7600        50
    21.7800        54
    21.8000        42
    21.8200        52
    21.8400        34
    21.8600        46
    21.8800        48
    21.9000        54
    21.9200        56
    21.9400        46
    21.9600        60
    21.9800        46
    22.0000        54
    22.0200        50
    22.0400        52
    22.0600        46
    22.0800        50
    22.1000        46
    22.1200        64
    22.1400        42
    22.1600        80
    22.1800        74
    22.2000        58
    22.2200        62
    22.2400        72
    22.2600        56
    22.2800        72
    22.3000        72
    22.3200        48
    22.3400        68
    22.3600        70
    22.3800        62
    22.4000        60
    22.4200        54
    22.4400        68
    22.4600        48
    22.4800        48
    22.5000        52
    22.5200        54
    22.5400        54
    22.5600        66
    22.5800        78
    22.6000        88
    22.6200        66
    22.6400        84
    22.6600        80
    22.6800        96
    22.7000        92
    22.7200       100
    22.7400       104
    22.7600       102
    22.7800       120
    22.8000       118
    22.8200       130
    22.8400       142
    22.8600       118
    22.8800       110
    22.9000        90
    22.9200        96
    22.9400        86
    22.9600        74
    22.9800        62
    23.0000        76
    23.0200        60
    23.0400        48
    23.0600        52
    23.0800        42
    23.1000        52
    23.1200        44
    23.1400        48
    23.1600        48
    23.1800        76
    23.2000        36
    23.2200        42
    23.2400        58
    23.2600        56
    23.2800        48
    23.3000        54
    23.3200        70
    23.3400        54
    23.3600        54
    23.3800        54
    23.4000        48
    23.4200        60
    23.4400        52
    23.4600        62
    23.4800        62
    23.5000        68
    23.5200        68
    23.5400        80
    23.5600       102
    23.5800       106
    23.6000        96
    23.6200       124
    23.6400       152
    23.6600       118
    23.6800       128
    23.7000       142
    23.7200       162
    23.7400       132
    23.7600       140
    23.7800       112
    23.8000       120
    23.8200       114
    23.8400        84
    23.8600        84
    23.8800        68
    23.9000        76
    23.9200        82
    23.9400        74
    23.9600        76
    23.9800        74
    24.0000        86
    24.0200        88
    24.0400        92
    24.0600        82
    24.0800        96
    24.1000       100
    24.1200        68
    24.1400        58
    24.1600        80
    24.1800        38
    24.2000        44
    24.2200        48
    24.2400        40
    24.2600        52
    24.2800        48
    24.3000        44
    24.3200        48
    24.3400        38
    24.3600        54
    24.3800        44
    24.4000        46
    24.4200        54
    24.4400        56
    24.4600        52
    24.4800        52
    24.5000        50
    24.5200        40
    24.5400        48
    24.5600        70
    24.5800        44
    24.6000        70
    24.6200        56
    24.6400        62
    24.6600        52
    24.6800        56
    24.7000        64
    24.7200        58
    24.7400        84
    24.7600        56
    24.7800        78
    24.8000        76
    24.8200        46
    24.8400        58
    24.8600        68
    24.8800        74
    24.9000        74
    24.9200        76
    24.9400        72
    24.9600        64
    24.9800        70
    25.0000        76
    25.0200        68
    25.0400        90
    25.0600        74
    25.0800        72
    25.1000        96
    25.1200        84
    25.1400        94
    25.1600        94
    25.1800        90
    25.2000        94
    25.2200        94
    25.2400       122
    25.2600       156
    25.2800       170
    25.3000       156
    25.3200       192
    25.3400       226
    25.3600       234
    25.3800       258
    25.4000       248
    25.4200       260
    25.4400       240
    25.4600       220
    25.4800       212
    25.5000       200
    25.5200       184
    25.5400       170
    25.5600       186
    25.5800       136
    25.6000        92
    25.6200       102
    25.6400        98
    25.6600       100
    25.6800       114
    25.7000        88
    25.7200       114
    25.7400       108
    25.7600       108
    25.7800       106
    25.8000       110
    25.8200       112
    25.8400        90
    25.8600        74
    25.8800       118
    25.9000       116
    25.9200       110
    25.9400        90
    25.9600        94
    25.9800        96
    26.0000       116
    26.0200       120
    26.0400       144
    26.0600       120
    26.0800       128
    26.1000       136
    26.1200       126
    26.1400       154
    26.1600       134
    26.1800       164
    26.2000       188
    26.2200       198
    26.2400       218
    26.2600       238
    26.2800       288
    26.3000       332
    26.3200       406
    26.3400       416
    26.3600       480
    26.3800       638
    26.4000       676
    26.4200       764
    26.4400       882
    26.4600      1020
    26.4800      1272
    26.5000      1562
    26.5200      1854
    26.5400      2444
    26.5600      3104
    26.5800      4096
    26.6000      5544
    26.6200      7316
    26.6400      9694
    26.6600     12108
    26.6800     14746
    26.7000     16228
    26.7200     15794
    26.7400     13420
    26.7600     11090
    26.7800      8704
    26.8000      6302
    26.8200      3918
    26.8400      2268
    26.8600      1480
    26.8800       944
    26.9000       648
    26.9200       510
    26.9400       408
    26.9600       416
    26.9800       338
    27.0000       282
    27.0200       260
    27.0400       230
    27.0600       228
    27.0800       178
    27.1000       150
    27.1200       140
    27.1400       128
    27.1600       128
    27.1800       114
    27.2000       116
    27.2200       104
    27.2400       108
    27.2600        72
    27.2800        96
    27.3000       112
    27.3200        98
    27.3400        88
    27.3600        92
    27.3800        68
    27.4000       102
    27.4200        82
    27.4400        94
    27.4600       100
    27.4800        88
    27.5000        98
    27.5200        86
    27.5400       120
    27.5600       130
    27.5800       136
    27.6000       144
    27.6200       176
    27.6400       178
    27.6600       218
    27.6800       236
    27.7000       250
    27.7200       298
    27.7400       308
    27.7600       298
    27.7800       274
    27.8000       276
    27.8200       286
    27.8400       242
    27.8600       190
    27.8800       182
    27.9000       120
    27.9200       128
    27.9400       110
    27.9600        76
    27.9800        80
    28.0000        70
    28.0200        60
    28.0400        68
    28.0600        78
    28.0800        46
    28.1000        64
    28.1200        58
    28.1400        68
    28.1600        72
    28.1800        66
    28.2000        68
    28.2200        68
    28.2400        50
    28.2600        54
    28.2800        44
    28.3000        68
    28.3200        64
    28.3400        44
    28.3600        64
    28.3800        58
    28.4000        68
    28.4200        84
    28.4400        80
    28.4600        60
    28.4800        70
    28.5000        62
    28.5200        72
    28.5400        72
    28.5600        72
    28.5800        50
    28.6000        56
    28.6200        64
    28.6400        46
    28.6600        48
    28.6800        68
    28.7000        46
    28.7200        50
    28.7400        44
    28.7600        40
    28.7800        50
    28.8000        52
    28.8200        48
    28.8400        38
    28.8600        42
    28.8800        46
    28.9000        54
    28.9200        54
    28.9400        48
    28.9600        46
    28.9800        58
    29.0000        36
    29.0200        56
    29.0400        56
    29.0600        54
    29.0800        52
    29.1000        48
    29.1200        56
    29.1400        34
    29.1600        48
    29.1800        54
    29.2000        52
    29.2200        48
    29.2400        58
    29.2600        50
    29.2800        62
    29.3000        44
    29.3200        54
    29.3400        42
    29.3600        66
    29.3800        60
    29.4000        76
    29.4200        64
    29.4400        76
    29.4600        74
    29.4800        94
    29.5000        84
    29.5200        86
    29.5400       108
    29.5600       128
    29.5800       116
    29.6000       144
    29.6200       156
    29.6400       186
    29.6600       212
    29.6800       288
    29.7000       302
    29.7200       290
    29.7400       356
    29.7600       380
    29.7800       376
    29.8000       326
    29.8200       324
    29.8400       288
    29.8600       254
    29.8800       204
    29.9000       178
    29.9200       162
    29.9400       114
    29.9600        94
    29.9800        78
    30.0000        76
    30.0200        74
    30.0400        78
    30.0600        56
    30.0800        70
    30.1000        70
    30.1200        50
    30.1400        52
    30.1600        48
    30.1800        56
    30.2000        46
    30.2200        46
    30.2400        50
    30.2600        50
    30.2800        70
    30.3000        58
    30.3200        44
    30.3400        40
    30.3600        62
    30.3800        40
    30.4000        28
    30.4200        38
    30.4400        34
    30.4600        46
    30.4800        48
    30.5000        48
    30.5200        32
    30.5400        40
    30.5600        48
    30.5800        46
    30.6000        46
    30.6200        48
    30.6400        50
    30.6600        50
    30.6800        42
    30.7000        56
    30.7200        38
    30.7400        50
    30.7600        48
    30.7800        52
    30.8000        48
    30.8200        68
    30.8400        66
    30.8600        68
    30.8800        88
    30.9000        70
    30.9200       116
    30.9400        84
    30.9600       116
    30.9800       116
    31.0000       122
    31.0200       162
    31.0400       196
    31.0600       216
    31.0800       258
    31.1000       242
    31.1200       290
    31.1400       284
    31.1600       302
    31.1800       274
    31.2000       276
    31.2200       218
    31.2400       194
    31.2600       190
    31.2800       148
    31.3000       110
    31.3200        96
    31.3400       104
    31.3600        72
    31.3800        74
    31.4000        58
    31.4200        64
    31.4400        64
    31.4600        50
    31.4800        50
    31.5000        46
    31.5200        52
    31.5400        66
    31.5600        46
    31.5800        50
    31.6000        54
    31.6200        50
    31.6400        64
    31.6600        56
    31.6800        64
    31.7000        56
    31.7200        70
    31.7400        88
    31.7600        96
    31.7800       100
    31.8000       120
    31.8200       138
    31.8400       144
    31.8600       182
    31.8800       188
    31.9000       198
    31.9200       244
    31.9400       270
    31.9600       246
    31.9800       226
    32.0000       216
    32.0200       194
    32.0400       160
    32.0600       132
    32.0800       106
    32.1000        98
    32.1200        96
    32.1400        82
    32.1600        68
    32.1800        52
    32.2000        48
    32.2200        54
    32.2400        38
    32.2600        58
    32.2800        40
    32.3000        60
    32.3200        38
    32.3400        54
    32.3600        36
    32.3800        40
    32.4000        44
    32.4200        34
    32.4400        36
    32.4600        46
    32.4800        32
    32.5000        44
    32.5200        34
    32.5400        38
    32.5600        38
    32.5800        32
    32.6000        48
    32.6200        36
    32.6400        42
    32.6600        50
    32.6800        30
    32.7000        28
    32.7200        30
    32.7400        42
    32.7600        42
    32.7800        32
    32.8000        28
    32.8200        32
    32.8400        40
    32.8600        34
    32.8800        30
    32.9000        44
    32.9200        26
    32.9400        32
    32.9600        32
    32.9800        30
    33.0000        32
    33.0200        40
    33.0400        34
    33.0600        46
    33.0800        28
    33.1000        34
    33.1200        36
    33.1400        46
    33.1600        32
    33.1800        40
    33.2000        44
    33.2200        40
    33.2400        32
    33.2600        46
    33.2800        32
    33.3000        50
    33.3200        38
    33.3400        38
    33.3600        36
    33.3800        48
    33.4000        48
    33.4200        42
    33.4400        30
    33.4600        34
    33.4800        40
    33.5000        44
    33.5200        34
    33.5400        28
    33.5600        32
    33.5800        36
    33.6000        40
    33.6200        36
    33.6400        32
    33.6600        42
    33.6800        48
    33.7000        40
    33.7200        42
    33.7400        32
    33.7600        38
    33.7800        36
    33.8000        34
    33.8200        40
    33.8400        42
    33.8600        30
    33.8800        44
    33.9000        48
    33.9200        30
    33.9400        34
    33.9600        50
    33.9800        38
    34.0000        40
    34.0200        40
    34.0400        42
    34.0600        38
    34.0800        46
    34.1000        42
    34.1200        42
    34.1400        48
    34.1600        40
    34.1800        48
    34.2000        42
    34.2200        52
    34.2400        54
    34.2600        66
    34.2800        68
    34.3000        78
    34.3200        68
    34.3400        70
    34.3600        90
    34.3800       100
    34.4000        90
    34.4200        98
    34.4400       110
    34.4600       108
    34.4800       146
    34.5000       122
    34.5200       138
    34.5400       144
    34.5600       122
    34.5800       134
    34.6000       136
    34.6200       132
    34.6400       126
    34.6600       144
    34.6800       154
    34.7000       146
    34.7200       160
    34.7400       172
    34.7600       198
    34.7800       214
    34.8000       226
    34.8200       260
    34.8400       296
    34.8600       324
    34.8800       302
    34.9000       328
    34.9200       310
    34.9400       328
    34.9600       262
    34.9800       256
    35.0000       228
    35.0200       198
    35.0400       200
    35.0600       142
    35.0800       142
    35.1000       122
    35.1200       110
    35.1400        98
    35.1600        82
    35.1800        72
    35.2000        82
    35.2200        68
    35.2400        50
    35.2600        50
    35.2800        56
    35.3000        74
    35.3200        34
    35.3400        66
    35.3600        46
    35.3800        46
    35.4000        64
    35.4200        66
    35.4400        86
    35.4600        74
    35.4800        76
    35.5000        70
    35.5200        90
    35.5400        82
    35.5600        94
    35.5800        98
    35.6000       116
    35.6200       142
    35.6400       154
    35.6600       188
    35.6800       222
    35.7000       262
    35.7200       306
    35.7400       354
    35.7600       454
    35.7800       570
    35.8000       764
    35.8200       938
    35.8400      1228
    35.8600      1408
    35.8800      1554
    35.9000      1554
    35.9200      1358
    35.9400      1136
    35.9600       998
    35.9800       826
    36.0000       702
    36.0200       502
    36.0400       350
    36.0600       246
    36.0800       160
    36.1000       104
    36.1200       106
    36.1400        80
    36.1600        90
    36.1800        76
    36.2000        76
    36.2200        94
    36.2400        82
    36.2600        80
    36.2800        96
    36.3000        84
    36.3200        86
    36.3400        92
    36.3600        86
    36.3800        86
    36.4000        88
    36.4200        94
    36.4400        68
    36.4600        86
    36.4800        80
    36.5000        82
    36.5200        76
    36.5400        64
    36.5600        56
    36.5800        66
    36.6000        66
    36.6200        36
    36.6400        60
    36.6600        70
    36.6800        60
    36.7000        48
    36.7200        74
    36.7400        66
    36.7600        64
    36.7800        54
    36.8000        44
    36.8200        48
    36.8400        42
    36.8600        56
    36.8800        38
    36.9000        34
    36.9200        36
    36.9400        42
    36.9600        44
    36.9800        46
    37.0000        46
    37.0200        54
    37.0400        46
    37.0600        50
    37.0800        58
    37.1000        48
    37.1200        64
    37.1400        48
    37.1600        82
    37.1800        56
    37.2000        58
    37.2200        58
    37.2400        58
    37.2600        72
    37.2800        56
    37.3000        62
    37.3200        72
    37.3400        62
    37.3600        72
    37.3800        58
    37.4000        76
    37.4200        70
    37.4400        66
    37.4600        70
    37.4800        76
    37.5000        80
    37.5200        88
    37.5400        86
    37.5600        82
    37.5800       102
    37.6000        98
    37.6200        80
    37.6400       100
    37.6600       108
    37.6800       102
    37.7000        90
    37.7200        92
    37.7400        78
    37.7600        96
    37.7800        98
    37.8000        66
    37.8200        84
    37.8400        62
    37.8600        66
    37.8800        72
    37.9000        54
    37.9200        52
    37.9400        52
    37.9600        48
    37.9800        42
    38.0000        40
    38.0200        50
    38.0400        40
    38.0600        40
    38.0800        42
    38.1000        42
    38.1200        32
    38.1400        40
    38.1600        42
    38.1800        26
    38.2000        40
    38.2200        36
    38.2400        46
    38.2600        34
    38.2800        30
    38.3000        32
    38.3200        26
    38.3400        34
    38.3600        26
    38.3800        30
    38.4000        30
    38.4200        26
    38.4400        34
    38.4600        32
    38.4800        44
    38.5000        36
    38.5200        18
    38.5400        28
    38.5600        30
    38.5800        22
    38.6000        46
    38.6200        38
    38.6400        30
    38.6600        28
    38.6800        32
    38.7000        28
    38.7200        42
    38.7400        36
    38.7600        32
    38.7800        26
    38.8000        30
    38.8200        32
    38.8400        26
    38.8600        32
    38.8800        32
    38.9000        32
    38.9200        34
    38.9400        22
    38.9600        34
    38.9800        26
    39.0000        30
    39.0200        28
    39.0400        36
    39.0600        36
    39.0800        32
    39.1000        30
    39.1200        44
    39.1400        30
    39.1600        36
    39.1800        26
    39.2000        28
    39.2200        24
    39.2400        22
    39.2600        20
    39.2800        26
    39.3000        28
    39.3200        44
    39.3400        32
    39.3600        34
    39.3800        26
    39.4000        24
    39.4200        32
    39.4400        30
    39.4600        24
    39.4800        46
    39.5000        30
    39.5200        34
    39.5400        38
    39.5600        22
    39.5800        26
    39.6000        38
    39.6200        24
    39.6400        38
    39.6600        48
    39.6800        54
    39.7000        44
    39.7200        48
    39.7400        36
    39.7600        34
    39.7800        40
    39.8000        46
    39.8200        46
    39.8400        46
    39.8600        32
    39.8800        40
    39.9000        44
    39.9200        38
    39.9400        46
    39.9600        48
    39.9800        40
    40.0000        46
    40.0200        58
    40.0400        58
    40.0600        52
    40.0800        50
    40.1000        44
    40.1200        62
    40.1400        56
    40.1600        46
    40.1800        50
    40.2000        48
    40.2200        48
    40.2400        64
    40.2600        36
    40.2800        60
    40.3000        38
    40.3200        44
    40.3400        54
    40.3600        60
    40.3800        50
    40.4000        60
    40.4200        46
    40.4400        52
    40.4600        42
    40.4800        40
    40.5000        54
    40.5200        52
    40.5400        36
    40.5600        34
    40.5800        46
    40.6000        48
    40.6200        46
    40.6400        50
    40.6600        54
    40.6800        68
    40.7000        80
    40.7200        78
    40.7400        70
    40.7600        82
    40.7800        82
    40.8000        66
    40.8200        66
    40.8400        54
    40.8600        52
    40.8800        46
    40.9000        64
    40.9200        44
    40.9400        52
    40.9600        60
    40.9800        58
    41.0000        48
    41.0200        68
    41.0400        52
    41.0600        40
    41.0800        44
    41.1000        44
    41.1200        56
    41.1400        40
    41.1600        44
    41.1800        50
    41.2000        50
    41.2200        36
    41.2400        54
    41.2600        44
    41.2800        54
    41.3000        60
    41.3200        48
    41.3400        28
    41.3600        42
    41.3800        28
    41.4000        44
    41.4200        42
    41.4400        34
    41.4600        26
    41.4800        32
    41.5000        38
    41.5200        48
    41.5400        32
    41.5600        32
    41.5800        34
    41.6000        34
    41.6200        54
    41.6400        42
    41.6600        44
    41.6800        36
    41.7000        50
    41.7200        52
    41.7400        48
    41.7600        56
    41.7800        54
    41.8000        66
    41.8200        84
    41.8400        72
    41.8600        82
    41.8800        74
    41.9000        84
    41.9200        90
    41.9400        74
    41.9600       102
    41.9800        96
    42.0000        96
    42.0200        94
    42.0400        78
    42.0600       102
    42.0800        82
    42.1000        80
    42.1200        64
    42.1400        78
    42.1600        90
    42.1800       102
    42.2000        74
    42.2200       124
    42.2400       100
    42.2600       122
    42.2800       108
    42.3000       122
    42.3200       134
    42.3400       138
    42.3600       158
    42.3800       146
    42.4000       116
    42.4200       100
    42.4400       110
    42.4600        98
    42.4800        96
    42.5000        94
    42.5200       104
    42.5400        68
    42.5600        60
    42.5800        64
    42.6000        50
    42.6200        60
    42.6400        60
    42.6600        48
    42.6800        56
    42.7000        34
    42.7200        50
    42.7400        44
    42.7600        46
    42.7800        34
    42.8000        44
    42.8200        50
    42.8400        38
    42.8600        62
    42.8800        46
    42.9000        36
    42.9200        36
    42.9400        34
    42.9600        40
    42.9800        40
    43.0000        46
    43.0200        38
    43.0400        46
    43.0600        54
    43.0800        54
    43.1000        60
    43.1200        50
    43.1400        48
    43.1600        48
    43.1800        40
    43.2000        50
    43.2200        50
    43.2400        42
    43.2600        48
    43.2800        68
    43.3000        64
    43.3200        58
    43.3400        74
    43.3600        48
    43.3800        62
    43.4000        52
    43.4200        48
    43.4400        56
    43.4600        46
    43.4800        56
    43.5000        48
    43.5200        46
    43.5400        48
    43.5600        52
    43.5800        56
    43.6000        52
    43.6200        58
    43.6400        48
    43.6600        54
    43.6800        52
    43.7000        50
    43.7200        48
    43.7400        64
    43.7600        54
    43.7800        58
    43.8000        46
    43.8200        68
    43.8400        54
    43.8600        68
    43.8800        64
    43.9000        62
    43.9200        58
    43.9400        48
    43.9600        80
    43.9800        74
    44.0000        58
    44.0200        52
    44.0400        66
    44.0600        76
    44.0800        74
    44.1000        60
    44.1200        54
    44.1400        62
    44.1600        56
    44.1800        62
    44.2000        68
    44.2200        62
    44.2400        52
    44.2600        80
    44.2800        58
    44.3000        62
    44.3200        62
    44.3400        68
    44.3600        58
    44.3800        60
    44.4000        52
    44.4200        66
    44.4400        84
    44.4600        62
    44.4800        72
    44.5000        58
    44.5200        60
    44.5400        66
    44.5600        72
    44.5800        62
    44.6000        72
    44.6200        68
    44.6400        72
    44.6600        86
    44.6800        70
    44.7000        98
    44.7200        78
    44.7400        80
    44.7600        70
    44.7800        66
    44.8000       102
    44.8200        84
    44.8400        92
    44.8600       106
    44.8800       132
    44.9000       132
    44.9200       128
    44.9400       182
    44.9600       194
    44.9800       240
    45.0000       258
    45.0200       284
    45.0400       336
    45.0600       386
    45.0800       456
    45.1000       540
    45.1200       694
    45.1400       868
    45.1600      1074
    45.1800      1468
    45.2000      1912
    45.2200      2858
    45.2400      3660
    45.2600      4928
    45.2800      6230
    45.3000      7102
    45.3200      7710
    45.3400      7114
    45.3600      5984
    45.3800      5176
    45.4000      4494
    45.4200      4348
    45.4400      3912
    45.4600      3180
    45.4800      2326
    45.5000      1736
    45.5200      1150
    45.5400       762
    45.5600       552
    45.5800       404
    45.6000       324
    45.6200       258
    45.6400       224
    45.6600       166
    45.6800       154
    45.7000       164
    45.7200       136
    45.7400       168
    45.7600       136
    45.7800       150
    45.8000       124
    45.8200       128
    45.8400       116
    45.8600       120
    45.8800       140
    45.9000       134
    45.9200       120
    45.9400       130
    45.9600       134
    45.9800       112
    46.0000       114
    46.0200       106
    46.0400       106
    46.0600        98
    46.0800        86
    46.1000        76
    46.1200        72
    46.1400        90
    46.1600        92
    46.1800        68
    46.2000        76
    46.2200        60
    46.2400        62
    46.2600        78
    46.2800        56
    46.3000        64
    46.3200        46
    46.3400        64
    46.3600        70
    46.3800        66
    46.4000        78
    46.4200        60
    46.4400        64
    46.4600        70
    46.4800        76
    46.5000        92
    46.5200        64
    46.5400        70
    46.5600        56
    46.5800        70
    46.6000        72
    46.6200        60
    46.6400        66
    46.6600        70
    46.6800        44
    46.7000        60
    46.7200        46
    46.7400        52
    46.7600        48
    46.7800        42
    46.8000        36
    46.8200        62
    46.8400        36
    46.8600        50
    46.8800        42
    46.9000        32
    46.9200        52
    46.9400        40
    46.9600        36
    46.9800        42
    47.0000        48
    47.0200        36
    47.0400        34
    47.0600        38
    47.0800        52
    47.1000        34
    47.1200        36
    47.1400        48
    47.1600        28
    47.1800        40
    47.2000        38
    47.2200        38
    47.2400        38
    47.2600        40
    47.2800        36
    47.3000        38
    47.3200        36
    47.3400        36
    47.3600        44
    47.3800        38
    47.4000        40
    47.4200        26
    47.4400        34
    47.4600        28
    47.4800        32
    47.5000        40
    47.5200        48
    47.5400        38
    47.5600        40
    47.5800        46
    47.6000        32
    47.6200        30
    47.6400        26
    47.6600        32
    47.6800        24
    47.7000        22
    47.7200        38
    47.7400        38
    47.7600        28
    47.7800        28
    47.8000        44
    47.8200        42
    47.8400        36
    47.8600        42
    47.8800        34
    47.9000        30
    47.9200        50
    47.9400        54
    47.9600        46
    47.9800        44
    48.0000        48
    48.0200        40
    48.0400        48
    48.0600        40
    48.0800        42
    48.1000        36
    48.1200        30
    48.1400        48
    48.1600        34
    48.1800        60
    48.2000        42
    48.2200        46
    48.2400        26
    48.2600        38
    48.2800        42
    48.3000        40
    48.3200        38
    48.3400        32
    48.3600        32
    48.3800        32
    48.4000        32
    48.4200        60
    48.4400        38
    48.4600        52
    48.4800        40
    48.5000        32
    48.5200        28
    48.5400        32
    48.5600        56
    48.5800        36
    48.6000        36
    48.6200        34
    48.6400        48
    48.6600        38
    48.6800        52
    48.7000        34
    48.7200        36
    48.7400        40
    48.7600        38
    48.7800        48
    48.8000        42
    48.8200        28
    48.8400        22
    48.8600        32
    48.8800        30
    48.9000        34
    48.9200        28
    48.9400        30
    48.9600        32
    48.9800        30
    49.0000        30
    49.0200        36
    49.0400        28
    49.0600        34
    49.0800        30
    49.1000        32
    49.1200        22
    49.1400        34
    49.1600        32
    49.1800        38
    49.2000        22
    49.2200        38
    49.2400        38
    49.2600        40
    49.2800        26
    49.3000        44
    49.3200        34
    49.3400        40
    49.3600        38
    49.3800        28
    49.4000        34
    49.4200        34
    49.4400        28
    49.4600        30
    49.4800        42
    49.5000        30
    49.5200        26
    49.5400        36
    49.5600        22
    49.5800        34
    49.6000        26
    49.6200        40
    49.6400        46
    49.6600        36
    49.6800        34
    49.7000        28
    49.7200        36
    49.7400        34
    49.7600        40
    49.7800        38
    49.8000        54
    49.8200        50
    49.8400        60
    49.8600        54
    49.8800        44
    49.9000        50
    49.9200        38
    49.9400        44
    49.9600        36
    49.9800        38
    50.0000        34
    50.0200        34
    50.0400        34
    50.0600        32
    50.0800        22
    50.1000        30
    50.1200        30
    50.1400        28
    50.1600        12
    50.1800        30
    50.2000        30
    50.2200        32
    50.2400        34
    50.2600        36
    50.2800        22
    50.3000        22
    50.3200        18
    50.3400        36
    50.3600        34
    50.3800        42
    50.4000        22
    50.4200        24
    50.4400        32
    50.4600        24
    50.4800        20
    50.5000        24
    50.5200        22
    50.5400        30
    50.5600        26
    50.5800        32
    50.6000        24
    50.6200        28
    50.6400        32
    50.6600        24
    50.6800        26
    50.7000        30
    50.7200        28
    50.7400        24
    50.7600        28
    50.7800        26
    50.8000        26
    50.8200        34
    50.8400        32
    50.8600        26
    50.8800        30
    50.9000        24
    50.9200        30
    50.9400        24
    50.9600        22
    50.9800        36
    51.0000        22
    51.0200        38
    51.0400        36
    51.0600        30
    51.0800        30
    51.1000        20
    51.1200        24
    51.1400        26
    51.1600        26
    51.1800        26
    51.2000        24
    51.2200        28
    51.2400        26
    51.2600        30
    51.2800        22
    51.3000        36
    51.3200        22
    51.3400        20
    51.3600        26
    51.3800        42
    51.4000        26
    51.4200        28
    51.4400        24
    51.4600        22
    51.4800        26
    51.5000        32
    51.5200        28
    51.5400        36
    51.5600        38
    51.5800        38
    51.6000        36
    51.6200        34
    51.6400        34
    51.6600        28
    51.6800        38
    51.7000        40
    51.7200        18
    51.7400        24
    51.7600        34
    51.7800        36
    51.8000        26
    51.8200        20
    51.8400        28
    51.8600        26
    51.8800        32
    51.9000        40
    51.9200        24
    51.9400        44
    51.9600        26
    51.9800        34
    52.0000        26
    52.0200        28
    52.0400        22
    52.0600        32
    52.0800        24
    52.1000        26
    52.1200        26
    52.1400        38
    52.1600        38
    52.1800        36
    52.2000        30
    52.2200        38
    52.2400        38
    52.2600        50
    52.2800        38
    52.3000        48
    52.3200        40
    52.3400        34
    52.3600        36
    52.3800        38
    52.4000        50
    52.4200        52
    52.4400        46
    52.4600        32
    52.4800        62
    52.5000        50
    52.5200        66
    52.5400        72
    52.5600        64
    52.5800        76
    52.6000        56
    52.6200        66
    52.6400        86
    52.6600        90
    52.6800        72
    52.7000        82
    52.7200        86
    52.7400       102
    52.7600       104
    52.7800       100
    52.8000       100
    52.8200        82
    52.8400        90
    52.8600        76
    52.8800        72
    52.9000        64
    52.9200        56
    52.9400        54
    52.9600        56
    52.9800        54
    53.0000        48
    53.0200        50
    53.0400        40
    53.0600        42
    53.0800        44
    53.1000        36
    53.1200        42
    53.1400        40
    53.1600        46
    53.1800        38
    53.2000        34
    53.2200        28
    53.2400        48
    53.2600        40
    53.2800        34
    53.3000        40
    53.3200        48
    53.3400        48
    53.3600        62
    53.3800        40
    53.4000        44
    53.4200        44
    53.4400        40
    53.4600        50
    53.4800        44
    53.5000        44
    53.5200        52
    53.5400        38
    53.5600        36
    53.5800        38
    53.6000        50
    53.6200        40
    53.6400        46
    53.6600        34
    53.6800        40
    53.7000        36
    53.7200        40
    53.7400        40
    53.7600        52
    53.7800        32
    53.8000        52
    53.8200        44
    53.8400        36
    53.8600        54
    53.8800        32
    53.9000        44
    53.9200        50
    53.9400        38
    53.9600        40
    53.9800        34
    54.0000        44
    54.0200        42
    54.0400        66
    54.0600        46
    54.0800        50
    54.1000        40
    54.1200        40
    54.1400        34
    54.1600        48
    54.1800        40
    54.2000        36
    54.2200        30
    54.2400        48
    54.2600        28
    54.2800        38
    54.3000        28
    54.3200        56
    54.3400        42
    54.3600        38
    54.3800        30
    54.4000        34
    54.4200        32
    54.4400        46
    54.4600        48
    54.4800        42
    54.5000        44
    54.5200        24
    54.5400        40
    54.5600        38
    54.5800        46
    54.6000        38
    54.6200        38
    54.6400        32
    54.6600        40
    54.6800        48
    54.7000        62
    54.7200        32
    54.7400        48
    54.7600        36
    54.7800        32
    54.8000        52
    54.8200        58
    54.8400        56
    54.8600        54
    54.8800        64
    54.9000        76
    54.9200        68
    54.9400        72
    54.9600        78
    54.9800       120
    55.0000        82
    55.0200       124
    55.0400       144
    55.0600       192
    55.0800       192
    55.1000       206
    55.1200       192
    55.1400       200
    55.1600       160
    55.1800       150
    55.2000       150
    55.2200       138
    55.2400       150
    55.2600       122
    55.2800       130
    55.3000       112
    55.3200       104
    55.3400       104
    55.3600        80
    55.3800        66
    55.4000        82
    55.4200        76
    55.4400        72
    55.4600        90
    55.4800        94
    55.5000        80
    55.5200        98
    55.5400        98
    55.5600       108
    55.5800       110
    55.6000       146
    55.6200       150
    55.6400       182
    55.6600       204
    55.6800       188
    55.7000       194
    55.7200       234
    55.7400       182
    55.7600       194
    55.7800       162
    55.8000       174
    55.8200       172
    55.8400       186
    55.8600       148
    55.8800       110
    55.9000       108
    55.9200       104
    55.9400       104
    55.9600        96
    55.9800        72
    56.0000        62
    56.0200        80
    56.0400        62
    56.0600        66
    56.0800        62
    56.1000        62
    56.1200        66
    56.1400        58
    56.1600        50
    56.1800        62
    56.2000        48
    56.2200        52
    56.2400        58
    56.2600        52
    56.2800        56
    56.3000        40
    56.3200        66
    56.3400        38
    56.3600        54
    56.3800        60
    56.4000        42
    56.4200        28
    56.4400        40
    56.4600        52
    56.4800        42
    56.5000        52
    56.5200        40
    56.5400        42
    56.5600        48
    56.5800        42
    56.6000        50
    56.6200        42
    56.6400        42
    56.6600        46
    56.6800        46
    56.7000        52
    56.7200        44
    56.7400        52
    56.7600        42
    56.7800        60
    56.8000        36
    56.8200        54
    56.8400        58
    56.8600        44
    56.8800        46
    56.9000        42
    56.9200        44
    56.9400        44
    56.9600        48
    56.9800        36
    57.0000        42
    57.0200        42
    57.0400        50
    57.0600        44
    57.0800        38
    57.1000        48
    57.1200        30
    57.1400        58
    57.1600        46
    57.1800        36
    57.2000        42
    57.2200        52
    57.2400        42
    57.2600        44
    57.2800        48
    57.3000        60
    57.3200        46
    57.3400        46
    57.3600        44
    57.3800        70
    57.4000        50
    57.4200        50
    57.4400        54
    57.4600        70
    57.4800        46
    57.5000        64
    57.5200        44
    57.5400        54
    57.5600        46
    57.5800        48
    57.6000        56
    57.6200        42
    57.6400        46
    57.6600        42
    57.6800        40
    57.7000        40
    57.7200        50
    57.7400        42
    57.7600        50
    57.7800        34
    57.8000        48
    57.8200        38
    57.8400        30
    57.8600        26
    57.8800        48
    57.9000        36
    57.9200        32
    57.9400        48
    57.9600        28
    57.9800        34
    58.0000        42
    58.0200        32
    58.0400        30
    58.0600        30
    58.0800        40
    58.1000        32
    58.1200        28
    58.1400        30
    58.1600        32
    58.1800        32
    58.2000        28
    58.2200        30
    58.2400        40
    58.2600        36
    58.2800        22
    58.3000        32
    58.3200        20
    58.3400        32
    58.3600        38
    58.3800        28
    58.4000        42
    58.4200        28
    58.4400        34
    58.4600        26
    58.4800        48
    58.5000        30
    58.5200        40
    58.5400        36
    58.5600        30
    58.5800        32
    58.6000        28
    58.6200        36
    58.6400        24
    58.6600        30
    58.6800        34
    58.7000        38
    58.7200        40
    58.7400        30
    58.7600        34
    58.7800        36
    58.8000        34
    58.8200        28
    58.8400        34
    58.8600        48
    58.8800        40
    58.9000        38
    58.9200        52
    58.9400        58
    58.9600        42
    58.9800        60
    59.0000        46
    59.0200        62
    59.0400        70
    59.0600        58
    59.0800        60
    59.1000        54
    59.1200        62
    59.1400        64
    59.1600        62
    59.1800        62
    59.2000        58
    59.2200        62
    59.2400        64
    59.2600        66
    59.2800        56
    59.3000        58
    59.3200        52
    59.3400        56
    59.3600        36
    59.3800        60
    59.4000        50
    59.4200        48
    59.4400        44
    59.4600        42
    59.4800        48
    59.5000        36
    59.5200        46
    59.5400        42
    59.5600        40
    59.5800        34
    59.6000        36
    59.6200        38
    59.6400        40
    59.6600        44
    59.6800        26
    59.7000        42
    59.7200        46
    59.7400        48
    59.7600        28
    59.7800        30
    59.8000        54
    59.8200        44
    59.8400        44
    59.8600        30
    59.8800        38
    59.9000        30
    59.9200        30
    59.9400        44
    59.9600        42
    59.9800        36
    60.0000        38
    60.0200        34
    60.0400        30
    60.0600        42
    60.0800        44
    60.1000        42
    60.1200        40
    60.1400        38
    60.1600        42
    60.1800        34
    60.2000        34
    60.2200        34
    60.2400        28
    60.2600        48
    60.2800        40
    60.3000        46
    60.3200        66
    60.3400        60
    60.3600        56
    60.3800        62
    60.4000        56
    60.4200        64
    60.4400        70
    60.4600        72
    60.4800        86
    60.5000        88
    60.5200       102
    60.5400       122
    60.5600       156
    60.5800       140
    60.6000       130
    60.6200       152
    60.6400       148
    60.6600       136
    60.6800       138
    60.7000       120
    60.7200       116
    60.7400       116
    60.7600       118
    60.7800       130
    60.8000       112
    60.8200       122
    60.8400       120
    60.8600       118
    60.8800       106
    60.9000        94
    60.9200        88
    60.9400        92
    60.9600        96
    60.9800        84
    61.0000       100
    61.0200        80
    61.0400        78
    61.0600        58
    61.0800        68
    61.1000        74
    61.1200        70
    61.1400        58
    61.1600        84
    61.1800        78
    61.2000        80
    61.2200        70
    61.2400        66
    61.2600        74
    61.2800        80
    61.3000        98
    61.3200        90
    61.3400        72
    61.3600        76
    61.3800        84
    61.4000        92
    61.4200        78
    61.4400        78
    61.4600        74
    61.4800        90
    61.5000        80
    61.5200       102
    61.5400        74
    61.5600        88
    61.5800        78
    61.6000        84
    61.6200        94
    61.6400        92
    61.6600       104
    61.6800       112
    61.7000        82
    61.7200       104
    61.7400        92
    61.7600        94
    61.7800        96
    61.8000        94
    61.8200        80
    61.8400        98
    61.8600        98
    61.8800        70
    61.9000        82
    61.9200        96
    61.9400        80
    61.9600        64
    61.9800        72
    62.0000        72
    62.0200        62
    62.0400        66
    62.0600        64
    62.0800        64
    62.1000        48
    62.1200        66
    62.1400        52
    62.1600        50
    62.1800        46
    62.2000        50
    62.2200        52
    62.2400        48
    62.2600        40
    62.2800        54
    62.3000        52
    62.3200        36
    62.3400        40
    62.3600        40
    62.3800        30
    62.4000        30
    62.4200        34
    62.4400        36
    62.4600        48
    62.4800        42
    62.5000        44
    62.5200        30
    62.5400        38
    62.5600        36
    62.5800        28
    62.6000        42
    62.6200        40
    62.6400        34
    62.6600        40
    62.6800        36
    62.7000        34
    62.7200        34
    62.7400        48
    62.7600        30
    62.7800        38
    62.8000        36
    62.8200        38
    62.8400        30
    62.8600        38
    62.8800        40
    62.9000        44
    62.9200        50
    62.9400        40
    62.9600        44
    62.9800        38
    63.0000        36
    63.0200        30
    63.0400        42
    63.0600        36
    63.0800        50
    63.1000        64
    63.1200        52
    63.1400        38
    63.1600        50
    63.1800        42
    63.2000        42
    63.2200        44
    63.2400        50
    63.2600        40
    63.2800        32
    63.3000        52
    63.3200        48
    63.3400        38
    63.3600        48
    63.3800        44
    63.4000        34
    63.4200        32
    63.4400        42
    63.4600        34
    63.4800        42
    63.5000        32
    63.5200        34
    63.5400        38
    63.5600        38
    63.5800        46
    63.6000        50
    63.6200        28
    63.6400        44
    63.6600        50
    63.6800        54
    63.7000        48
    63.7200        64
    63.7400        68
    63.7600        84
    63.7800        72
    63.8000        86
    63.8200       108
    63.8400       112
    63.8600       120
    63.8800       130
    63.9000       132
    63.9200       156
    63.9400       130
    63.9600       120
    63.9800        98
    64.0000       118
    64.0200       112
    64.0400        92
    64.0600        94
    64.0800        90
    64.1000        94
    64.1200        64
    64.1400        82
    64.1600        74
    64.1800        70
    64.2000        54
    64.2200        46
    64.2400        34
    64.2600        50
    64.2800        34
    64.3000        28
    64.3200        40
    64.3400        28
    64.3600        36
    64.3800        30
    64.4000        34
    64.4200        38
    64.4400        40
    64.4600        28
    64.4800        36
    64.5000        26
    64.5200        38
    64.5400        28
    64.5600        38
    64.5800        34
    64.6000        26
    64.6200        36
    64.6400        36
    64.6600        32
    64.6800        34
    64.7000        32
    64.7200        38
    64.7400        30
    64.7600        32
    64.7800        42
    64.8000        50
    64.8200        50
    64.8400        38
    64.8600        46
    64.8800        50
    64.9000        44
    64.9200        50
    64.9400        54
    64.9600        52
    64.9800        58
    65.0000        56
