/////////////////////////////////////////////////////////////////////////////////
/// Profile Data Ascii Dump (XRD)                                             ///
/////////////////////////////////////////////////////////////////////////////////

  Group     : Swayze
  Data      : GDS184
  File Name : GDS184.RAW

# Profile Datafile
          comment             = Roscoelite 
          date & time         = 08-04-14 09:26:47 

# Measurement Condition
    X-ray tube
          target              = Cu 
          voltage             = 40.0 (kV)
          current             = 30.0 (mA)
    Slits
          divergence slit     = 2.00000 (deg) 
          scatter slit        = 2.00000 (deg) 
          receiving slit      = 0.15000 (mm)  
    Scanning
          drive axis          = Theta-2Theta 
          scan range          =    4.000 -   65.000 
          scan mode           = Continuous Scan 
          scan speed          =   2.0000 (deg/min) 
          sampling pitch      =   0.0200 (deg) 
          preset time         =   0.60 (sec) 

# Data      [ Total No. = 3051 ]
  <2Theta>   <   I   >
     4.0000       182
     4.0200       156
     4.0400       174
     4.0600       202
     4.0800       232
     4.1000       166
     4.1200       174
     4.1400       164
     4.1600       194
     4.1800       148
     4.2000       154
     4.2200       168
     4.2400       198
     4.2600       158
     4.2800       182
     4.3000       176
     4.3200       174
     4.3400       194
     4.3600       178
     4.3800       184
     4.4000       184
     4.4200       158
     4.4400       164
     4.4600       188
     4.4800       184
     4.5000       182
     4.5200       172
     4.5400       166
     4.5600       172
     4.5800       196
     4.6000       182
     4.6200       140
     4.6400       208
     4.6600       166
     4.6800       150
     4.7000       156
     4.7200       130
     4.7400       176
     4.7600       146
     4.7800       168
     4.8000       150
     4.8200       166
     4.8400       160
     4.8600       162
     4.8800       174
     4.9000       142
     4.9200       152
     4.9400       162
     4.9600       164
     4.9800       164
     5.0000       170
     5.0200       166
     5.0400       168
     5.0600       144
     5.0800       146
     5.1000       178
     5.1200       154
     5.1400       144
     5.1600       146
     5.1800       154
     5.2000       154
     5.2200       146
     5.2400       162
     5.2600       172
     5.2800       154
     5.3000       176
     5.3200       146
     5.3400       142
     5.3600       170
     5.3800       162
     5.4000       190
     5.4200       152
     5.4400       160
     5.4600       162
     5.4800       170
     5.5000       182
     5.5200       152
     5.5400       184
     5.5600       140
     5.5800       140
     5.6000       184
     5.6200       190
     5.6400       142
     5.6600       156
     5.6800       154
     5.7000       158
     5.7200       158
     5.7400       176
     5.7600       164
     5.7800       160
     5.8000       164
     5.8200       172
     5.8400       168
     5.8600       192
     5.8800       176
     5.9000       162
     5.9200       172
     5.9400       164
     5.9600       190
     5.9800       152
     6.0000       162
     6.0200       170
     6.0400       174
     6.0600       180
     6.0800       160
     6.1000       172
     6.1200       182
     6.1400       176
     6.1600       156
     6.1800       184
     6.2000       178
     6.2200       196
     6.2400       148
     6.2600       162
     6.2800       178
     6.3000       142
     6.3200       166
     6.3400       174
     6.3600       188
     6.3800       156
     6.4000       158
     6.4200       136
     6.4400       166
     6.4600       168
     6.4800       150
     6.5000       170
     6.5200       148
     6.5400       150
     6.5600       130
     6.5800       152
     6.6000       152
     6.6200       162
     6.6400       138
     6.6600       146
     6.6800       148
     6.7000       136
     6.7200       136
     6.7400       142
     6.7600       124
     6.7800       130
     6.8000       160
     6.8200       116
     6.8400       142
     6.8600       142
     6.8800       150
     6.9000       136
     6.9200       128
     6.9400       120
     6.9600       124
     6.9800       140
     7.0000       128
     7.0200       122
     7.0400       140
     7.0600       140
     7.0800       120
     7.1000       128
     7.1200       124
     7.1400       120
     7.1600       118
     7.1800       122
     7.2000       134
     7.2200       120
     7.2400       140
     7.2600       124
     7.2800       122
     7.3000       122
     7.3200       128
     7.3400       146
     7.3600       140
     7.3800       134
     7.4000       118
     7.4200       136
     7.4400       118
     7.4600       104
     7.4800       132
     7.5000        94
     7.5200       110
     7.5400       136
     7.5600       110
     7.5800        92
     7.6000       110
     7.6200       148
     7.6400       124
     7.6600       130
     7.6800       122
     7.7000       136
     7.7200       106
     7.7400       116
     7.7600       108
     7.7800       122
     7.8000       122
     7.8200       124
     7.8400       118
     7.8600       106
     7.8800       136
     7.9000       126
     7.9200       116
     7.9400       142
     7.9600       132
     7.9800       142
     8.0000       120
     8.0200       136
     8.0400       126
     8.0600       114
     8.0800       118
     8.1000       120
     8.1200       120
     8.1400       134
     8.1600       126
     8.1800       146
     8.2000       120
     8.2200       144
     8.2400       136
     8.2600       158
     8.2800       130
     8.3000       142
     8.3200       162
     8.3400       170
     8.3600       160
     8.3800       182
     8.4000       186
     8.4200       200
     8.4400       246
     8.4600       230
     8.4800       240
     8.5000       252
     8.5200       256
     8.5400       306
     8.5600       314
     8.5800       322
     8.6000       378
     8.6200       374
     8.6400       416
     8.6600       506
     8.6800       494
     8.7000       568
     8.7200       732
     8.7400       870
     8.7600      1034
     8.7800      1314
     8.8000      1580
     8.8200      2012
     8.8400      2308
     8.8600      2310
     8.8800      2034
     8.9000      1464
     8.9200       964
     8.9400       634
     8.9600       440
     8.9800       308
     9.0000       220
     9.0200       188
     9.0400       176
     9.0600       160
     9.0800       162
     9.1000       152
     9.1200       134
     9.1400       152
     9.1600       142
     9.1800       130
     9.2000       120
     9.2200       110
     9.2400       104
     9.2600       100
     9.2800       116
     9.3000       110
     9.3200       110
     9.3400       104
     9.3600       100
     9.3800       106
     9.4000       104
     9.4200       106
     9.4400       102
     9.4600       122
     9.4800       114
     9.5000       106
     9.5200        94
     9.5400       116
     9.5600       108
     9.5800       126
     9.6000       100
     9.6200       102
     9.6400        98
     9.6600        96
     9.6800       108
     9.7000       110
     9.7200       106
     9.7400       100
     9.7600       120
     9.7800        88
     9.8000       132
     9.8200       104
     9.8400       120
     9.8600       102
     9.8800       108
     9.9000        94
     9.9200       102
     9.9400       108
     9.9600        98
     9.9800        84
    10.0000       108
    10.0200       110
    10.0400       104
    10.0600       100
    10.0800        92
    10.1000       108
    10.1200        96
    10.1400        92
    10.1600       114
    10.1800        94
    10.2000        98
    10.2200        66
    10.2400        94
    10.2600        96
    10.2800       118
    10.3000       106
    10.3200        98
    10.3400       102
    10.3600       108
    10.3800        88
    10.4000        82
    10.4200        90
    10.4400       106
    10.4600        70
    10.4800        98
    10.5000       102
    10.5200        92
    10.5400       106
    10.5600        78
    10.5800        86
    10.6000        92
    10.6200       104
    10.6400       104
    10.6600       100
    10.6800        78
    10.7000        80
    10.7200        94
    10.7400        82
    10.7600        90
    10.7800        96
    10.8000        78
    10.8200       100
    10.8400        82
    10.8600        88
    10.8800        94
    10.9000        88
    10.9200        92
    10.9400        96
    10.9600        76
    10.9800        88
    11.0000        92
    11.0200       110
    11.0400        96
    11.0600        88
    11.0800        76
    11.1000        94
    11.1200        78
    11.1400        86
    11.1600        76
    11.1800        94
    11.2000        96
    11.2200        90
    11.2400        80
    11.2600        96
    11.2800        82
    11.3000        84
    11.3200        84
    11.3400        96
    11.3600        86
    11.3800        72
    11.4000       100
    11.4200        76
    11.4400        84
    11.4600        92
    11.4800        84
    11.5000       104
    11.5200        70
    11.5400        70
    11.5600        78
    11.5800        98
    11.6000        74
    11.6200        84
    11.6400        78
    11.6600        62
    11.6800        90
    11.7000        78
    11.7200        70
    11.7400        72
    11.7600        68
    11.7800        82
    11.8000        64
    11.8200        70
    11.8400        64
    11.8600        94
    11.8800        78
    11.9000        72
    11.9200        76
    11.9400        74
    11.9600        88
    11.9800        76
    12.0000        80
    12.0200        66
    12.0400        82
    12.0600        64
    12.0800        72
    12.1000        78
    12.1200        64
    12.1400        72
    12.1600        74
    12.1800        64
    12.2000        74
    12.2200        86
    12.2400        72
    12.2600        80
    12.2800        74
    12.3000        70
    12.3200        74
    12.3400        82
    12.3600        84
    12.3800        80
    12.4000        76
    12.4200        84
    12.4400        86
    12.4600        70
    12.4800        56
    12.5000        72
    12.5200        76
    12.5400        74
    12.5600        68
    12.5800        64
    12.6000        74
    12.6200        72
    12.6400        76
    12.6600        66
    12.6800        76
    12.7000        70
    12.7200        62
    12.7400        84
    12.7600        82
    12.7800        86
    12.8000        64
    12.8200        82
    12.8400        72
    12.8600        72
    12.8800        72
    12.9000        82
    12.9200        64
    12.9400        60
    12.9600        58
    12.9800        56
    13.0000        74
    13.0200        68
    13.0400        68
    13.0600        68
    13.0800        78
    13.1000        88
    13.1200        86
    13.1400        54
    13.1600        66
    13.1800        64
    13.2000        74
    13.2200        68
    13.2400        54
    13.2600        62
    13.2800        52
    13.3000        80
    13.3200        70
    13.3400        62
    13.3600        62
    13.3800        58
    13.4000        54
    13.4200        54
    13.4400        76
    13.4600        62
    13.4800        62
    13.5000        48
    13.5200        66
    13.5400        70
    13.5600        54
    13.5800        54
    13.6000        68
    13.6200        64
    13.6400        56
    13.6600        72
    13.6800        60
    13.7000        66
    13.7200        62
    13.7400        68
    13.7600        70
    13.7800        52
    13.8000        60
    13.8200        62
    13.8400        44
    13.8600        44
    13.8800        62
    13.9000        56
    13.9200        58
    13.9400        48
    13.9600        68
    13.9800        52
    14.0000        56
    14.0200        60
    14.0400        52
    14.0600        70
    14.0800        60
    14.1000        66
    14.1200        70
    14.1400        70
    14.1600        72
    14.1800        50
    14.2000        64
    14.2200        68
    14.2400        38
    14.2600        68
    14.2800        64
    14.3000        66
    14.3200        64
    14.3400        58
    14.3600        60
    14.3800        70
    14.4000        54
    14.4200        62
    14.4400        60
    14.4600        42
    14.4800        76
    14.5000        68
    14.5200        66
    14.5400        64
    14.5600        58
    14.5800        58
    14.6000        50
    14.6200        64
    14.6400        42
    14.6600        56
    14.6800        68
    14.7000        56
    14.7200        50
    14.7400        52
    14.7600        58
    14.7800        50
    14.8000        58
    14.8200        56
    14.8400        46
    14.8600        66
    14.8800        66
    14.9000        40
    14.9200        58
    14.9400        58
    14.9600        48
    14.9800        44
    15.0000        66
    15.0200        60
    15.0400        64
    15.0600        62
    15.0800        50
    15.1000        50
    15.1200        46
    15.1400        52
    15.1600        54
    15.1800        54
    15.2000        50
    15.2200        48
    15.2400        52
    15.2600        48
    15.2800        50
    15.3000        56
    15.3200        50
    15.3400        64
    15.3600        50
    15.3800        64
    15.4000        54
    15.4200        50
    15.4400        58
    15.4600        66
    15.4800        48
    15.5000        54
    15.5200        58
    15.5400        52
    15.5600        58
    15.5800        64
    15.6000        52
    15.6200        58
    15.6400        56
    15.6600        56
    15.6800        68
    15.7000        58
    15.7200        62
    15.7400        66
    15.7600        68
    15.7800        36
    15.8000        56
    15.8200        60
    15.8400        62
    15.8600        54
    15.8800        48
    15.9000        48
    15.9200        54
    15.9400        70
    15.9600        60
    15.9800        58
    16.0000        56
    16.0200        42
    16.0400        52
    16.0600        60
    16.0800        52
    16.1000        60
    16.1200        52
    16.1400        52
    16.1600        46
    16.1800        48
    16.2000        40
    16.2200        48
    16.2400        46
    16.2600        52
    16.2800        58
    16.3000        52
    16.3200        52
    16.3400        52
    16.3600        46
    16.3800        60
    16.4000        48
    16.4200        48
    16.4400        44
    16.4600        50
    16.4800        56
    16.5000        60
    16.5200        50
    16.5400        58
    16.5600        48
    16.5800        50
    16.6000        46
    16.6200        62
    16.6400        54
    16.6600        64
    16.6800        38
    16.7000        52
    16.7200        54
    16.7400        46
    16.7600        54
    16.7800        44
    16.8000        48
    16.8200        48
    16.8400        54
    16.8600        46
    16.8800        46
    16.9000        50
    16.9200        46
    16.9400        58
    16.9600        46
    16.9800        38
    17.0000        44
    17.0200        60
    17.0400        58
    17.0600        44
    17.0800        46
    17.1000        46
    17.1200        48
    17.1400        46
    17.1600        50
    17.1800        58
    17.2000        40
    17.2200        66
    17.2400        60
    17.2600        56
    17.2800        50
    17.3000        52
    17.3200        56
    17.3400        62
    17.3600        60
    17.3800        52
    17.4000        54
    17.4200        58
    17.4400        56
    17.4600        50
    17.4800        78
    17.5000        46
    17.5200        54
    17.5400        76
    17.5600        66
    17.5800        78
    17.6000        82
    17.6200        76
    17.6400        84
    17.6600       106
    17.6800       126
    17.7000       140
    17.7200       132
    17.7400       168
    17.7600       126
    17.7800       136
    17.8000        92
    17.8200        86
    17.8400        76
    17.8600        78
    17.8800        54
    17.9000        44
    17.9200        64
    17.9400        54
    17.9600        38
    17.9800        52
    18.0000        42
    18.0200        64
    18.0400        58
    18.0600        48
    18.0800        32
    18.1000        70
    18.1200        54
    18.1400        50
    18.1600        48
    18.1800        56
    18.2000        48
    18.2200        46
    18.2400        46
    18.2600        52
    18.2800        58
    18.3000        42
    18.3200        50
    18.3400        52
    18.3600        58
    18.3800        56
    18.4000        50
    18.4200        52
    18.4400        50
    18.4600        44
    18.4800        62
    18.5000        72
    18.5200        56
    18.5400        70
    18.5600        78
    18.5800        58
    18.6000        72
    18.6200        58
    18.6400        46
    18.6600        66
    18.6800        54
    18.7000        64
    18.7200        60
    18.7400        62
    18.7600        52
    18.7800        66
    18.8000        50
    18.8200        62
    18.8400        40
    18.8600        62
    18.8800        66
    18.9000        60
    18.9200        50
    18.9400        50
    18.9600        56
    18.9800        54
    19.0000        46
    19.0200        42
    19.0400        58
    19.0600        58
    19.0800        42
    19.1000        62
    19.1200        42
    19.1400        58
    19.1600        62
    19.1800        64
    19.2000        64
    19.2200        48
    19.2400        56
    19.2600        62
    19.2800        56
    19.3000        58
    19.3200        60
    19.3400        70
    19.3600        70
    19.3800        76
    19.4000        74
    19.4200        70
    19.4400        68
    19.4600        98
    19.4800        78
    19.5000        74
    19.5200        80
    19.5400        80
    19.5600        64
    19.5800        62
    19.6000        70
    19.6200        56
    19.6400        48
    19.6600        70
    19.6800        64
    19.7000        42
    19.7200        58
    19.7400        68
    19.7600        46
    19.7800        52
    19.8000        58
    19.8200        64
    19.8400        54
    19.8600        46
    19.8800        54
    19.9000        46
    19.9200        52
    19.9400        54
    19.9600        60
    19.9800        56
    20.0000        54
    20.0200        52
    20.0400        58
    20.0600        64
    20.0800        52
    20.1000        38
    20.1200        68
    20.1400        64
    20.1600        74
    20.1800        70
    20.2000        92
    20.2200        74
    20.2400        80
    20.2600        84
    20.2800        64
    20.3000        72
    20.3200        50
    20.3400        66
    20.3600        60
    20.3800        66
    20.4000        58
    20.4200        58
    20.4400        42
    20.4600        42
    20.4800        62
    20.5000        44
    20.5200        48
    20.5400        60
    20.5600        54
    20.5800        58
    20.6000        62
    20.6200        44
    20.6400        38
    20.6600        52
    20.6800        42
    20.7000        62
    20.7200        48
    20.7400        48
    20.7600        60
    20.7800        80
    20.8000        60
    20.8200        78
    20.8400        98
    20.8600        62
    20.8800        78
    20.9000        72
    20.9200        68
    20.9400        58
    20.9600        40
    20.9800        50
    21.0000        52
    21.0200        60
    21.0400        56
    21.0600        40
    21.0800        52
    21.1000        58
    21.1200        50
    21.1400        54
    21.1600        40
    21.1800        62
    21.2000        44
    21.2200        48
    21.2400        46
    21.2600        32
    21.2800        48
    21.3000        56
    21.3200        46
    21.3400        56
    21.3600        40
    21.3800        64
    21.4000        64
    21.4200        60
    21.4400        54
    21.4600        72
    21.4800        62
    21.5000        46
    21.5200        70
    21.5400        52
    21.5600        50
    21.5800        38
    21.6000        52
    21.6200        44
    21.6400        48
    21.6600        44
    21.6800        50
    21.7000        44
    21.7200        52
    21.7400        50
    21.7600        44
    21.7800        46
    21.8000        46
    21.8200        60
    21.8400        38
    21.8600        56
    21.8800        48
    21.9000        54
    21.9200        54
    21.9400        48
    21.9600        38
    21.9800        54
    22.0000        54
    22.0200        60
    22.0400        54
    22.0600        48
    22.0800        44
    22.1000        66
    22.1200        46
    22.1400        44
    22.1600        38
    22.1800        48
    22.2000        48
    22.2200        54
    22.2400        40
    22.2600        44
    22.2800        42
    22.3000        52
    22.3200        42
    22.3400        54
    22.3600        36
    22.3800        36
    22.4000        42
    22.4200        52
    22.4400        52
    22.4600        52
    22.4800        50
    22.5000        40
    22.5200        46
    22.5400        54
    22.5600        42
    22.5800        40
    22.6000        74
    22.6200        56
    22.6400        54
    22.6600        68
    22.6800        58
    22.7000        56
    22.7200        54
    22.7400        50
    22.7600        60
    22.7800        62
    22.8000        50
    22.8200        64
    22.8400        58
    22.8600        64
    22.8800       112
    22.9000        74
    22.9200        82
    22.9400        70
    22.9600        52
    22.9800        74
    23.0000        74
    23.0200        62
    23.0400        64
    23.0600        64
    23.0800        62
    23.1000        60
    23.1200        46
    23.1400        52
    23.1600        56
    23.1800        50
    23.2000        50
    23.2200        62
    23.2400        56
    23.2600        72
    23.2800        64
    23.3000        80
    23.3200        82
    23.3400        82
    23.3600        80
    23.3800        74
    23.4000       106
    23.4200        86
    23.4400        92
    23.4600        96
    23.4800        80
    23.5000        84
    23.5200        74
    23.5400        78
    23.5600        66
    23.5800        68
    23.6000        60
    23.6200        56
    23.6400        48
    23.6600        54
    23.6800        58
    23.7000        52
    23.7200        50
    23.7400        56
    23.7600        64
    23.7800        76
    23.8000        58
    23.8200        46
    23.8400        58
    23.8600        50
    23.8800        60
    23.9000        54
    23.9200        56
    23.9400        78
    23.9600        60
    23.9800        68
    24.0000        52
    24.0200        64
    24.0400        84
    24.0600        96
    24.0800        90
    24.1000        74
    24.1200        88
    24.1400        96
    24.1600       112
    24.1800        96
    24.2000        94
    24.2200        98
    24.2400       124
    24.2600       102
    24.2800       100
    24.3000        98
    24.3200       126
    24.3400        90
    24.3600        84
    24.3800        74
    24.4000        94
    24.4200        70
    24.4400        74
    24.4600        72
    24.4800        64
    24.5000        68
    24.5200        68
    24.5400        60
    24.5600        46
    24.5800        64
    24.6000        48
    24.6200        48
    24.6400        46
    24.6600        44
    24.6800        74
    24.7000        56
    24.7200        52
    24.7400        54
    24.7600        52
    24.7800        52
    24.8000        52
    24.8200        42
    24.8400        54
    24.8600        48
    24.8800        60
    24.9000        46
    24.9200        54
    24.9400        60
    24.9600        60
    24.9800        48
    25.0000        56
    25.0200        60
    25.0400        66
    25.0600        62
    25.0800        74
    25.1000        56
    25.1200        64
    25.1400        52
    25.1600        54
    25.1800        60
    25.2000        58
    25.2200        64
    25.2400        54
    25.2600        70
    25.2800        52
    25.3000        66
    25.3200        72
    25.3400        64
    25.3600        74
    25.3800        86
    25.4000        68
    25.4200        54
    25.4400        56
    25.4600        72
    25.4800        72
    25.5000        76
    25.5200        78
    25.5400        80
    25.5600        78
    25.5800        72
    25.6000        68
    25.6200        60
    25.6400        66
    25.6600        86
    25.6800        70
    25.7000        74
    25.7200        58
    25.7400        74
    25.7600        50
    25.7800        58
    25.8000        72
    25.8200        68
    25.8400        78
    25.8600        60
    25.8800        68
    25.9000        80
    25.9200        54
    25.9400        78
    25.9600        80
    25.9800        68
    26.0000        66
    26.0200        68
    26.0400        72
    26.0600        78
    26.0800        76
    26.1000        58
    26.1200        76
    26.1400       100
    26.1600        94
    26.1800        90
    26.2000       106
    26.2200       102
    26.2400       108
    26.2600       120
    26.2800       124
    26.3000       146
    26.3200       140
    26.3400       184
    26.3600       196
    26.3800       268
    26.4000       250
    26.4200       286
    26.4400       370
    26.4600       414
    26.4800       446
    26.5000       522
    26.5200       612
    26.5400       788
    26.5600       996
    26.5800      1326
    26.6000      1586
    26.6200      2128
    26.6400      2608
    26.6600      3188
    26.6800      3626
    26.7000      3978
    26.7200      3940
    26.7400      3668
    26.7600      3216
    26.7800      2604
    26.8000      2120
    26.8200      1562
    26.8400      1074
    26.8600       740
    26.8800       574
    26.9000       380
    26.9200       282
    26.9400       230
    26.9600       208
    26.9800       158
    27.0000       138
    27.0200       136
    27.0400       124
    27.0600       112
    27.0800        92
    27.1000        76
    27.1200        98
    27.1400        80
    27.1600        64
    27.1800        72
    27.2000        62
    27.2200        70
    27.2400        60
    27.2600        60
    27.2800        64
    27.3000        64
    27.3200        56
    27.3400        62
    27.3600        70
    27.3800        72
    27.4000        68
    27.4200        64
    27.4400        68
    27.4600        78
    27.4800        88
    27.5000        78
    27.5200        76
    27.5400        94
    27.5600        90
    27.5800        80
    27.6000        68
    27.6200        54
    27.6400        64
    27.6600        70
    27.6800        46
    27.7000        56
    27.7200        64
    27.7400        50
    27.7600        72
    27.7800        72
    27.8000        68
    27.8200        56
    27.8400        76
    27.8600        72
    27.8800        74
    27.9000        66
    27.9200        74
    27.9400        78
    27.9600        78
    27.9800        60
    28.0000        52
    28.0200        62
    28.0400        54
    28.0600        64
    28.0800        56
    28.1000        50
    28.1200        64
    28.1400        66
    28.1600        66
    28.1800        64
    28.2000        50
    28.2200        60
    28.2400        60
    28.2600        52
    28.2800        54
    28.3000        54
    28.3200        56
    28.3400        50
    28.3600        56
    28.3800        48
    28.4000        84
    28.4200        68
    28.4400        68
    28.4600        72
    28.4800        86
    28.5000        82
    28.5200        88
    28.5400        92
    28.5600       100
    28.5800       116
    28.6000        94
    28.6200       126
    28.6400       116
    28.6600       124
    28.6800       100
    28.7000       140
    28.7200       120
    28.7400       130
    28.7600       126
    28.7800       124
    28.8000       106
    28.8200       120
    28.8400        88
    28.8600        92
    28.8800        74
    28.9000        64
    28.9200        74
    28.9400        72
    28.9600        70
    28.9800        52
    29.0000        48
    29.0200        64
    29.0400        60
    29.0600        52
    29.0800        46
    29.1000        56
    29.1200        52
    29.1400        48
    29.1600        54
    29.1800        60
    29.2000        44
    29.2200        62
    29.2400        50
    29.2600        36
    29.2800        50
    29.3000        40
    29.3200        54
    29.3400        36
    29.3600        52
    29.3800        52
    29.4000        56
    29.4200        50
    29.4400        52
    29.4600        40
    29.4800        32
    29.5000        46
    29.5200        40
    29.5400        46
    29.5600        34
    29.5800        44
    29.6000        40
    29.6200        44
    29.6400        40
    29.6600        46
    29.6800        44
    29.7000        32
    29.7200        36
    29.7400        48
    29.7600        44
    29.7800        48
    29.8000        46
    29.8200        48
    29.8400        46
    29.8600        34
    29.8800        60
    29.9000        56
    29.9200        48
    29.9400        42
    29.9600        52
    29.9800        66
    30.0000        50
    30.0200        44
    30.0400        42
    30.0600        62
    30.0800        46
    30.1000        58
    30.1200        52
    30.1400        54
    30.1600        50
    30.1800        44
    30.2000        58
    30.2200        54
    30.2400        60
    30.2600        48
    30.2800        48
    30.3000        44
    30.3200        48
    30.3400        50
    30.3600        62
    30.3800        66
    30.4000        52
    30.4200        80
    30.4400        54
    30.4600        60
    30.4800        82
    30.5000        96
    30.5200        66
    30.5400       106
    30.5600       110
    30.5800        96
    30.6000       118
    30.6200       124
    30.6400       118
    30.6600       122
    30.6800       106
    30.7000       106
    30.7200       110
    30.7400        92
    30.7600        94
    30.7800        96
    30.8000       104
    30.8200        84
    30.8400        94
    30.8600        72
    30.8800        64
    30.9000        64
    30.9200        74
    30.9400        40
    30.9600        48
    30.9800        52
    31.0000        40
    31.0200        38
    31.0400        38
    31.0600        44
    31.0800        50
    31.1000        44
    31.1200        50
    31.1400        42
    31.1600        38
    31.1800        38
    31.2000        38
    31.2200        38
    31.2400        50
    31.2600        40
    31.2800        44
    31.3000        30
    31.3200        46
    31.3400        36
    31.3600        32
    31.3800        32
    31.4000        38
    31.4200        52
    31.4400        36
    31.4600        30
    31.4800        38
    31.5000        46
    31.5200        46
    31.5400        38
    31.5600        38
    31.5800        44
    31.6000        38
    31.6200        52
    31.6400        42
    31.6600        42
    31.6800        38
    31.7000        38
    31.7200        38
    31.7400        48
    31.7600        38
    31.7800        38
    31.8000        40
    31.8200        46
    31.8400        40
    31.8600        44
    31.8800        50
    31.9000        46
    31.9200        48
    31.9400        46
    31.9600        56
    31.9800        56
    32.0000        66
    32.0200        62
    32.0400        64
    32.0600        68
    32.0800        56
    32.1000        64
    32.1200        44
    32.1400        40
    32.1600        44
    32.1800        36
    32.2000        36
    32.2200        46
    32.2400        42
    32.2600        42
    32.2800        50
    32.3000        50
    32.3200        34
    32.3400        54
    32.3600        52
    32.3800        36
    32.4000        42
    32.4200        38
    32.4400        42
    32.4600        38
    32.4800        38
    32.5000        42
    32.5200        44
    32.5400        36
    32.5600        40
    32.5800        42
    32.6000        50
    32.6200        38
    32.6400        40
    32.6600        48
    32.6800        42
    32.7000        54
    32.7200        48
    32.7400        40
    32.7600        62
    32.7800        52
    32.8000        50
    32.8200        44
    32.8400        44
    32.8600        44
    32.8800        42
    32.9000        42
    32.9200        40
    32.9400        46
    32.9600        58
    32.9800        48
    33.0000        58
    33.0200        52
    33.0400        66
    33.0600        52
    33.0800        80
    33.1000        80
    33.1200        98
    33.1400       118
    33.1600       100
    33.1800       128
    33.2000       128
    33.2200       158
    33.2400       162
    33.2600       158
    33.2800       166
    33.3000       170
    33.3200       178
    33.3400       146
    33.3600       146
    33.3800       114
    33.4000       100
    33.4200        84
    33.4400        54
    33.4600        76
    33.4800        72
    33.5000        52
    33.5200        56
    33.5400        62
    33.5600        44
    33.5800        46
    33.6000        32
    33.6200        46
    33.6400        34
    33.6600        38
    33.6800        52
    33.7000        44
    33.7200        48
    33.7400        40
    33.7600        36
    33.7800        32
    33.8000        64
    33.8200        56
    33.8400        72
    33.8600        64
    33.8800        58
    33.9000        88
    33.9200        84
    33.9400        70
    33.9600        90
    33.9800        82
    34.0000        94
    34.0200        82
    34.0400        86
    34.0600        86
    34.0800        64
    34.1000        74
    34.1200        54
    34.1400        54
    34.1600        72
    34.1800        44
    34.2000        66
    34.2200        52
    34.2400        60
    34.2600        70
    34.2800        64
    34.3000        70
    34.3200        64
    34.3400        72
    34.3600        56
    34.3800        62
    34.4000        86
    34.4200        92
    34.4400        72
    34.4600        74
    34.4800        78
    34.5000       100
    34.5200        86
    34.5400        92
    34.5600        98
    34.5800        74
    34.6000        56
    34.6200        70
    34.6400        58
    34.6600        60
    34.6800        52
    34.7000        48
    34.7200        54
    34.7400        50
    34.7600        56
    34.7800        60
    34.8000        46
    34.8200        54
    34.8400        44
    34.8600        36
    34.8800        44
    34.9000        42
    34.9200        50
    34.9400        48
    34.9600        38
    34.9800        32
    35.0000        44
    35.0200        58
    35.0400        42
    35.0600        36
    35.0800        44
    35.1000        42
    35.1200        38
    35.1400        42
    35.1600        54
    35.1800        52
    35.2000        28
    35.2200        52
    35.2400        38
    35.2600        56
    35.2800        40
    35.3000        38
    35.3200        56
    35.3400        50
    35.3600        44
    35.3800        52
    35.4000        58
    35.4200        64
    35.4400        58
    35.4600        60
    35.4800        70
    35.5000        40
    35.5200        74
    35.5400        70
    35.5600        78
    35.5800        60
    35.6000        66
    35.6200        74
    35.6400        76
    35.6600        78
    35.6800        80
    35.7000        94
    35.7200       104
    35.7400       124
    35.7600       140
    35.7800       204
    35.8000       226
    35.8200       300
    35.8400       318
    35.8600       386
    35.8800       380
    35.9000       392
    35.9200       344
    35.9400       318
    35.9600       248
    35.9800       244
    36.0000       164
    36.0200       126
    36.0400       116
    36.0600        90
    36.0800        90
    36.1000        62
    36.1200        52
    36.1400        58
    36.1600        64
    36.1800        58
    36.2000        46
    36.2200        38
    36.2400        52
    36.2600        50
    36.2800        38
    36.3000        50
    36.3200        48
    36.3400        56
    36.3600        48
    36.3800        46
    36.4000        52
    36.4200        54
    36.4400        44
    36.4600        66
    36.4800        68
    36.5000        72
    36.5200       104
    36.5400       114
    36.5600       110
    36.5800        84
    36.6000        82
    36.6200        80
    36.6400        80
    36.6600        62
    36.6800        78
    36.7000        56
    36.7200        50
    36.7400        54
    36.7600        52
    36.7800        50
    36.8000        50
    36.8200        38
    36.8400        42
    36.8600        44
    36.8800        50
    36.9000        52
    36.9200        48
    36.9400        52
    36.9600        44
    36.9800        44
    37.0000        50
    37.0200        52
    37.0400        72
    37.0600        48
    37.0800        58
    37.1000        62
    37.1200        68
    37.1400        56
    37.1600        72
    37.1800        56
    37.2000        76
    37.2200        62
    37.2400        70
    37.2600        54
    37.2800        52
    37.3000        44
    37.3200        58
    37.3400        46
    37.3600        44
    37.3800        56
    37.4000        52
    37.4200        50
    37.4400        66
    37.4600        48
    37.4800        42
    37.5000        46
    37.5200        42
    37.5400        44
    37.5600        40
    37.5800        32
    37.6000        30
    37.6200        42
    37.6400        34
    37.6600        28
    37.6800        36
    37.7000        26
    37.7200        34
    37.7400        26
    37.7600        54
    37.7800        40
    37.8000        30
    37.8200        42
    37.8400        32
    37.8600        40
    37.8800        18
    37.9000        48
    37.9200        30
    37.9400        50
    37.9600        42
    37.9800        48
    38.0000        38
    38.0200        42
    38.0400        70
    38.0600        66
    38.0800        52
    38.1000        56
    38.1200        46
    38.1400        42
    38.1600        58
    38.1800        54
    38.2000        36
    38.2200        66
    38.2400        54
    38.2600        60
    38.2800        34
    38.3000        48
    38.3200        42
    38.3400        48
    38.3600        48
    38.3800        42
    38.4000        40
    38.4200        38
    38.4400        40
    38.4600        44
    38.4800        40
    38.5000        32
    38.5200        48
    38.5400        40
    38.5600        32
    38.5800        32
    38.6000        28
    38.6200        48
    38.6400        52
    38.6600        42
    38.6800        40
    38.7000        46
    38.7200        24
    38.7400        40
    38.7600        32
    38.7800        32
    38.8000        34
    38.8200        42
    38.8400        40
    38.8600        22
    38.8800        28
    38.9000        32
    38.9200        26
    38.9400        20
    38.9600        18
    38.9800        30
    39.0000        18
    39.0200        30
    39.0400        28
    39.0600        30
    39.0800        48
    39.1000        28
    39.1200        28
    39.1400        34
    39.1600        28
    39.1800        24
    39.2000        32
    39.2200        34
    39.2400        34
    39.2600        40
    39.2800        38
    39.3000        38
    39.3200        42
    39.3400        40
    39.3600        52
    39.3800        44
    39.4000        44
    39.4200        48
    39.4400        48
    39.4600        56
    39.4800        60
    39.5000        42
    39.5200        48
    39.5400        50
    39.5600        52
    39.5800        52
    39.6000        40
    39.6200        34
    39.6400        60
    39.6600        30
    39.6800        42
    39.7000        40
    39.7200        42
    39.7400        40
    39.7600        34
    39.7800        34
    39.8000        34
    39.8200        40
    39.8400        40
    39.8600        42
    39.8800        36
    39.9000        40
    39.9200        52
    39.9400        46
    39.9600        34
    39.9800        34
    40.0000        36
    40.0200        30
    40.0400        38
    40.0600        40
    40.0800        40
    40.1000        34
    40.1200        28
    40.1400        36
    40.1600        38
    40.1800        30
    40.2000        38
    40.2200        38
    40.2400        44
    40.2600        42
    40.2800        42
    40.3000        44
    40.3200        44
    40.3400        50
    40.3600        44
    40.3800        48
    40.4000        44
    40.4200        42
    40.4400        42
    40.4600        36
    40.4800        46
    40.5000        50
    40.5200        60
    40.5400        38
    40.5600        56
    40.5800        42
    40.6000        52
    40.6200        54
    40.6400        50
    40.6600        48
    40.6800        46
    40.7000        46
    40.7200        58
    40.7400        68
    40.7600        52
    40.7800        56
    40.8000        58
    40.8200        50
    40.8400        38
    40.8600        62
    40.8800        50
    40.9000        44
    40.9200        30
    40.9400        36
    40.9600        52
    40.9800        52
    41.0000        40
    41.0200        46
    41.0400        46
    41.0600        48
    41.0800        56
    41.1000        58
    41.1200        46
    41.1400        40
    41.1600        66
    41.1800        54
    41.2000        62
    41.2200        48
    41.2400        60
    41.2600        56
    41.2800        44
    41.3000        48
    41.3200        58
    41.3400        46
    41.3600        38
    41.3800        46
    41.4000        30
    41.4200        48
    41.4400        36
    41.4600        42
    41.4800        34
    41.5000        38
    41.5200        40
    41.5400        48
    41.5600        44
    41.5800        40
    41.6000        54
    41.6200        52
    41.6400        46
    41.6600        58
    41.6800        54
    41.7000        46
    41.7200        50
    41.7400        60
    41.7600        54
    41.7800        66
    41.8000        66
    41.8200        58
    41.8400        54
    41.8600        62
    41.8800        54
    41.9000        46
    41.9200        46
    41.9400        52
    41.9600        38
    41.9800        38
    42.0000        42
    42.0200        44
    42.0400        42
    42.0600        38
    42.0800        48
    42.1000        44
    42.1200        42
    42.1400        44
    42.1600        44
    42.1800        52
    42.2000        40
    42.2200        40
    42.2400        36
    42.2600        40
    42.2800        40
    42.3000        36
    42.3200        42
    42.3400        34
    42.3600        30
    42.3800        44
    42.4000        42
    42.4200        54
    42.4400        44
    42.4600        44
    42.4800        38
    42.5000        38
    42.5200        46
    42.5400        40
    42.5600        46
    42.5800        58
    42.6000        36
    42.6200        26
    42.6400        38
    42.6600        40
    42.6800        40
    42.7000        36
    42.7200        38
    42.7400        34
    42.7600        26
    42.7800        32
    42.8000        36
    42.8200        32
    42.8400        32
    42.8600        26
    42.8800        30
    42.9000        34
    42.9200        32
    42.9400        26
    42.9600        30
    42.9800        36
    43.0000        26
    43.0200        32
    43.0400        32
    43.0600        30
    43.0800        30
    43.1000        32
    43.1200        38
    43.1400        30
    43.1600        46
    43.1800        36
    43.2000        34
    43.2200        32
    43.2400        26
    43.2600        46
    43.2800        30
    43.3000        32
    43.3200        44
    43.3400        36
    43.3600        34
    43.3800        28
    43.4000        38
    43.4200        36
    43.4400        28
    43.4600        38
    43.4800        26
    43.5000        32
    43.5200        28
    43.5400        30
    43.5600        40
    43.5800        46
    43.6000        30
    43.6200        46
    43.6400        44
    43.6600        30
    43.6800        42
    43.7000        50
    43.7200        28
    43.7400        30
    43.7600        38
    43.7800        26
    43.8000        32
    43.8200        30
    43.8400        30
    43.8600        34
    43.8800        30
    43.9000        36
    43.9200        28
    43.9400        36
    43.9600        32
    43.9800        38
    44.0000        34
    44.0200        26
    44.0400        32
    44.0600        24
    44.0800        32
    44.1000        28
    44.1200        28
    44.1400        28
    44.1600        30
    44.1800        28
    44.2000        26
    44.2200        42
    44.2400        32
    44.2600        28
    44.2800        26
    44.3000        24
    44.3200        30
    44.3400        28
    44.3600        36
    44.3800        30
    44.4000        32
    44.4200        40
    44.4400        34
    44.4600        36
    44.4800        18
    44.5000        30
    44.5200        30
    44.5400        36
    44.5600        36
    44.5800        34
    44.6000        38
    44.6200        40
    44.6400        48
    44.6600        28
    44.6800        34
    44.7000        28
    44.7200        30
    44.7400        36
    44.7600        42
    44.7800        34
    44.8000        50
    44.8200        44
    44.8400        52
    44.8600        46
    44.8800        56
    44.9000        48
    44.9200        74
    44.9400        60
    44.9600        44
    44.9800        76
    45.0000        86
    45.0200        94
    45.0400        96
    45.0600       100
    45.0800       122
    45.1000       142
    45.1200       186
    45.1400       238
    45.1600       316
    45.1800       384
    45.2000       546
    45.2200       642
    45.2400       778
    45.2600       838
    45.2800       862
    45.3000       846
    45.3200       840
    45.3400       752
    45.3600       710
    45.3800       644
    45.4000       564
    45.4200       506
    45.4400       432
    45.4600       332
    45.4800       258
    45.5000       218
    45.5200       166
    45.5400       134
    45.5600       124
    45.5800       114
    45.6000        94
    45.6200        74
    45.6400        76
    45.6600        66
    45.6800        46
    45.7000        62
    45.7200        70
    45.7400        46
    45.7600        60
    45.7800        66
    45.8000        54
    45.8200        52
    45.8400        44
    45.8600        48
    45.8800        52
    45.9000        42
    45.9200        42
    45.9400        38
    45.9600        54
    45.9800        36
    46.0000        40
    46.0200        42
    46.0400        42
    46.0600        48
    46.0800        44
    46.1000        32
    46.1200        40
    46.1400        32
    46.1600        38
    46.1800        40
    46.2000        30
    46.2200        50
    46.2400        42
    46.2600        38
    46.2800        44
    46.3000        24
    46.3200        40
    46.3400        34
    46.3600        30
    46.3800        28
    46.4000        30
    46.4200        44
    46.4400        34
    46.4600        38
    46.4800        44
    46.5000        40
    46.5200        46
    46.5400        42
    46.5600        46
    46.5800        32
    46.6000        44
    46.6200        46
    46.6400        36
    46.6600        40
    46.6800        38
    46.7000        30
    46.7200        38
    46.7400        32
    46.7600        40
    46.7800        40
    46.8000        28
    46.8200        42
    46.8400        28
    46.8600        34
    46.8800        36
    46.9000        36
    46.9200        40
    46.9400        22
    46.9600        40
    46.9800        28
    47.0000        38
    47.0200        30
    47.0400        28
    47.0600        22
    47.0800        24
    47.1000        22
    47.1200        28
    47.1400        30
    47.1600        24
    47.1800        34
    47.2000        34
    47.2200        30
    47.2400        30
    47.2600        32
    47.2800        28
    47.3000        28
    47.3200        26
    47.3400        30
    47.3600        30
    47.3800        34
    47.4000        24
    47.4200        34
    47.4400        34
    47.4600        32
    47.4800        32
    47.5000        20
    47.5200        34
    47.5400        30
    47.5600        28
    47.5800        16
    47.6000        30
    47.6200        26
    47.6400        32
    47.6600        36
    47.6800        32
    47.7000        18
    47.7200        28
    47.7400        28
    47.7600        18
    47.7800        26
    47.8000        32
    47.8200        28
    47.8400        28
    47.8600        18
    47.8800        22
    47.9000        24
    47.9200        34
    47.9400        46
    47.9600        26
    47.9800        36
    48.0000        30
    48.0200        48
    48.0400        30
    48.0600        32
    48.0800        24
    48.1000        30
    48.1200        30
    48.1400        30
    48.1600        42
    48.1800        34
    48.2000        42
    48.2200        18
    48.2400        24
    48.2600        42
    48.2800        32
    48.3000        36
    48.3200        30
    48.3400        26
    48.3600        26
    48.3800        32
    48.4000        24
    48.4200        36
    48.4400        26
    48.4600        32
    48.4800        14
    48.5000        20
    48.5200        24
    48.5400        24
    48.5600        28
    48.5800        26
    48.6000        32
    48.6200        26
    48.6400        26
    48.6600        34
    48.6800        28
    48.7000        26
    48.7200        26
    48.7400        16
    48.7600        36
    48.7800        32
    48.8000        32
    48.8200        34
    48.8400        36
    48.8600        28
    48.8800        30
    48.9000        32
    48.9200        34
    48.9400        36
    48.9600        32
    48.9800        34
    49.0000        28
    49.0200        24
    49.0400        30
    49.0600        26
    49.0800        24
    49.1000        30
    49.1200        38
    49.1400        24
    49.1600        26
    49.1800        26
    49.2000        26
    49.2200        26
    49.2400        30
    49.2600        32
    49.2800        20
    49.3000        30
    49.3200        30
    49.3400        38
    49.3600        20
    49.3800        30
    49.4000        24
    49.4200        24
    49.4400        26
    49.4600        30
    49.4800        38
    49.5000        26
    49.5200        26
    49.5400        26
    49.5600        24
    49.5800        38
    49.6000        38
    49.6200        28
    49.6400        32
    49.6600        42
    49.6800        30
    49.7000        32
    49.7200        32
    49.7400        32
    49.7600        30
    49.7800        22
    49.8000        38
    49.8200        34
    49.8400        32
    49.8600        42
    49.8800        38
    49.9000        34
    49.9200        38
    49.9400        38
    49.9600        38
    49.9800        30
    50.0000        40
    50.0200        44
    50.0400        44
    50.0600        46
    50.0800        70
    50.1000        70
    50.1200        68
    50.1400        64
    50.1600        50
    50.1800        54
    50.2000        44
    50.2200        48
    50.2400        48
    50.2600        50
    50.2800        48
    50.3000        34
    50.3200        30
    50.3400        28
    50.3600        22
    50.3800        28
    50.4000        24
    50.4200        26
    50.4400        36
    50.4600        16
    50.4800        36
    50.5000        36
    50.5200        30
    50.5400        30
    50.5600        24
    50.5800        28
    50.6000        28
    50.6200        28
    50.6400        38
    50.6600        32
    50.6800        24
    50.7000        30
    50.7200        32
    50.7400        34
    50.7600        28
    50.7800        20
    50.8000        34
    50.8200        32
    50.8400        34
    50.8600        26
    50.8800        24
    50.9000        30
    50.9200        30
    50.9400        26
    50.9600        26
    50.9800        18
    51.0000        26
    51.0200        14
    51.0400        28
    51.0600        24
    51.0800        34
    51.1000        20
    51.1200        26
    51.1400        22
    51.1600        26
    51.1800        24
    51.2000        28
    51.2200        26
    51.2400        26
    51.2600        22
    51.2800        24
    51.3000        28
    51.3200        20
    51.3400        22
    51.3600        36
    51.3800        20
    51.4000        26
    51.4200        24
    51.4400        22
    51.4600        22
    51.4800        28
    51.5000        26
    51.5200        28
    51.5400        34
    51.5600        24
    51.5800        14
    51.6000        32
    51.6200        28
    51.6400        40
    51.6600        28
    51.6800        24
    51.7000        18
    51.7200        30
    51.7400        32
    51.7600        38
    51.7800        16
    51.8000        24
    51.8200        22
    51.8400        20
    51.8600        28
    51.8800        20
    51.9000        42
    51.9200        26
    51.9400        18
    51.9600        28
    51.9800        24
    52.0000        22
    52.0200        40
    52.0400        26
    52.0600        30
    52.0800        28
    52.1000        28
    52.1200        28
    52.1400        32
    52.1600        36
    52.1800        22
    52.2000        28
    52.2200        34
    52.2400        34
    52.2600        32
    52.2800        22
    52.3000        28
    52.3200        24
    52.3400        30
    52.3600        28
    52.3800        26
    52.4000        30
    52.4200        36
    52.4400        30
    52.4600        30
    52.4800        44
    52.5000        26
    52.5200        30
    52.5400        26
    52.5600        24
    52.5800        30
    52.6000        28
    52.6200        30
    52.6400        26
    52.6600        32
    52.6800        30
    52.7000        32
    52.7200        24
    52.7400        22
    52.7600        42
    52.7800        36
    52.8000        38
    52.8200        36
    52.8400        40
    52.8600        38
    52.8800        38
    52.9000        34
    52.9200        28
    52.9400        30
    52.9600        32
    52.9800        34
    53.0000        36
    53.0200        26
    53.0400        38
    53.0600        38
    53.0800        42
    53.1000        46
    53.1200        44
    53.1400        46
    53.1600        36
    53.1800        38
    53.2000        38
    53.2200        30
    53.2400        42
    53.2600        30
    53.2800        22
    53.3000        36
    53.3200        28
    53.3400        30
    53.3600        46
    53.3800        36
    53.4000        38
    53.4200        34
    53.4400        40
    53.4600        46
    53.4800        42
    53.5000        24
    53.5200        36
    53.5400        40
    53.5600        40
    53.5800        26
    53.6000        34
    53.6200        32
    53.6400        34
    53.6600        30
    53.6800        28
    53.7000        44
    53.7200        34
    53.7400        38
    53.7600        34
    53.7800        38
    53.8000        40
    53.8200        34
    53.8400        36
    53.8600        40
    53.8800        54
    53.9000        34
    53.9200        44
    53.9400        46
    53.9600        38
    53.9800        46
    54.0000        38
    54.0200        34
    54.0400        26
    54.0600        42
    54.0800        60
    54.1000        40
    54.1200        36
    54.1400        36
    54.1600        42
    54.1800        30
    54.2000        50
    54.2200        36
    54.2400        22
    54.2600        38
    54.2800        46
    54.3000        46
    54.3200        48
    54.3400        44
    54.3600        54
    54.3800        40
    54.4000        42
    54.4200        56
    54.4400        56
    54.4600        50
    54.4800        60
    54.5000        50
    54.5200        58
    54.5400        48
    54.5600        74
    54.5800        50
    54.6000        66
    54.6200        62
    54.6400        64
    54.6600        48
    54.6800        58
    54.7000        60
    54.7200        72
    54.7400        42
    54.7600        48
    54.7800        78
    54.8000        76
    54.8200        78
    54.8400       110
    54.8600       104
    54.8800        98
    54.9000       128
    54.9200       150
    54.9400       148
    54.9600       176
    54.9800       194
    55.0000       188
    55.0200       194
    55.0400       210
    55.0600       194
    55.0800       162
    55.1000       170
    55.1200       156
    55.1400       136
    55.1600       144
    55.1800       114
    55.2000       122
    55.2200       112
    55.2400        78
    55.2600        76
    55.2800        74
    55.3000        74
    55.3200        78
    55.3400        52
    55.3600        72
    55.3800        80
    55.4000        54
    55.4200        56
    55.4400        82
    55.4600        56
    55.4800        46
    55.5000        44
    55.5200        58
    55.5400        62
    55.5600        54
    55.5800        54
    55.6000        64
    55.6200        54
    55.6400        40
    55.6600        68
    55.6800        50
    55.7000        50
    55.7200        50
    55.7400        40
    55.7600        36
    55.7800        40
    55.8000        48
    55.8200        34
    55.8400        34
    55.8600        40
    55.8800        36
    55.9000        40
    55.9200        30
    55.9400        40
    55.9600        30
    55.9800        34
    56.0000        44
    56.0200        36
    56.0400        30
    56.0600        40
    56.0800        34
    56.1000        38
    56.1200        36
    56.1400        30
    56.1600        28
    56.1800        34
    56.2000        34
    56.2200        20
    56.2400        28
    56.2600        28
    56.2800        42
    56.3000        42
    56.3200        46
    56.3400        40
    56.3600        42
    56.3800        28
    56.4000        34
    56.4200        38
    56.4400        30
    56.4600        46
    56.4800        32
    56.5000        30
    56.5200        32
    56.5400        28
    56.5600        28
    56.5800        26
    56.6000        26
    56.6200        34
    56.6400        18
    56.6600        34
    56.6800        24
    56.7000        30
    56.7200        30
    56.7400        30
    56.7600        26
    56.7800        34
    56.8000        38
    56.8200        36
    56.8400        28
    56.8600        32
    56.8800        26
    56.9000        22
    56.9200        36
    56.9400        26
    56.9600        30
    56.9800        32
    57.0000        34
    57.0200        28
    57.0400        34
    57.0600        26
    57.0800        28
    57.1000        22
    57.1200        38
    57.1400        36
    57.1600        28
    57.1800        28
    57.2000        30
    57.2200        22
    57.2400        36
    57.2600        18
    57.2800        22
    57.3000        40
    57.3200        54
    57.3400        26
    57.3600        34
    57.3800        42
    57.4000        50
    57.4200        36
    57.4400        46
    57.4600        44
    57.4800        38
    57.5000        46
    57.5200        46
    57.5400        50
    57.5600        38
    57.5800        56
    57.6000        50
    57.6200        42
    57.6400        38
    57.6600        38
    57.6800        44
    57.7000        50
    57.7200        56
    57.7400        42
    57.7600        48
    57.7800        38
    57.8000        40
    57.8200        40
    57.8400        28
    57.8600        28
    57.8800        42
    57.9000        40
    57.9200        30
    57.9400        32
    57.9600        40
    57.9800        36
    58.0000        30
    58.0200        30
    58.0400        36
    58.0600        36
    58.0800        32
    58.1000        50
    58.1200        28
    58.1400        34
    58.1600        44
    58.1800        24
    58.2000        38
    58.2200        30
    58.2400        22
    58.2600        38
    58.2800        38
    58.3000        34
    58.3200        44
    58.3400        40
    58.3600        42
    58.3800        32
    58.4000        34
    58.4200        46
    58.4400        32
    58.4600        22
    58.4800        36
    58.5000        26
    58.5200        30
    58.5400        28
    58.5600        28
    58.5800        36
    58.6000        34
    58.6200        22
    58.6400        28
    58.6600        30
    58.6800        28
    58.7000        32
    58.7200        22
    58.7400        26
    58.7600        36
    58.7800        30
    58.8000        30
    58.8200        36
    58.8400        34
    58.8600        28
    58.8800        38
    58.9000        30
    58.9200        38
    58.9400        28
    58.9600        28
    58.9800        24
    59.0000        32
    59.0200        34
    59.0400        34
    59.0600        38
    59.0800        34
    59.1000        42
    59.1200        40
    59.1400        36
    59.1600        28
    59.1800        30
    59.2000        28
    59.2200        26
    59.2400        30
    59.2600        32
    59.2800        38
    59.3000        38
    59.3200        36
    59.3400        36
    59.3600        40
    59.3800        36
    59.4000        38
    59.4200        24
    59.4400        28
    59.4600        38
    59.4800        36
    59.5000        32
    59.5200        34
    59.5400        28
    59.5600        34
    59.5800        38
    59.6000        34
    59.6200        46
    59.6400        52
    59.6600        32
    59.6800        32
    59.7000        40
    59.7200        26
    59.7400        38
    59.7600        34
    59.7800        54
    59.8000        44
    59.8200        34
    59.8400        40
    59.8600        38
    59.8800        44
    59.9000        58
    59.9200        56
    59.9400        62
    59.9600        56
    59.9800        60
    60.0000        46
    60.0200        52
    60.0400        46
    60.0600        52
    60.0800        52
    60.1000        58
    60.1200        50
    60.1400        46
    60.1600        44
    60.1800        46
    60.2000        42
    60.2200        38
    60.2400        38
    60.2600        42
    60.2800        44
    60.3000        36
    60.3200        34
    60.3400        30
    60.3600        38
    60.3800        36
    60.4000        46
    60.4200        50
    60.4400        46
    60.4600        52
    60.4800        34
    60.5000        42
    60.5200        40
    60.5400        54
    60.5600        52
    60.5800        56
    60.6000        66
    60.6200        50
    60.6400        48
    60.6600        62
    60.6800        58
    60.7000        62
    60.7200        64
    60.7400        56
    60.7600        56
    60.7800        54
    60.8000        60
    60.8200        70
    60.8400        56
    60.8600        42
    60.8800        58
    60.9000        56
    60.9200        58
    60.9400        70
    60.9600        54
    60.9800        56
    61.0000        60
    61.0200        64
    61.0400        56
    61.0600        58
    61.0800        48
    61.1000        46
    61.1200        52
    61.1400        54
    61.1600        46
    61.1800        58
    61.2000        34
    61.2200        42
    61.2400        58
    61.2600        52
    61.2800        32
    61.3000        42
    61.3200        34
    61.3400        32
    61.3600        34
    61.3800        34
    61.4000        36
    61.4200        44
    61.4400        50
    61.4600        38
    61.4800        38
    61.5000        42
    61.5200        44
    61.5400        38
    61.5600        32
    61.5800        46
    61.6000        42
    61.6200        48
    61.6400        46
    61.6600        30
    61.6800        28
    61.7000        38
    61.7200        32
    61.7400        38
    61.7600        30
    61.7800        36
    61.8000        38
    61.8200        34
    61.8400        46
    61.8600        42
    61.8800        30
    61.9000        28
    61.9200        52
    61.9400        42
    61.9600        40
    61.9800        36
    62.0000        38
    62.0200        50
    62.0400        32
    62.0600        48
    62.0800        52
    62.1000        68
    62.1200        50
    62.1400        36
    62.1600        46
    62.1800        42
    62.2000        48
    62.2200        42
    62.2400        40
    62.2600        42
    62.2800        42
    62.3000        44
    62.3200        48
    62.3400        34
    62.3600        46
    62.3800        48
    62.4000        36
    62.4200        48
    62.4400        56
    62.4600        42
    62.4800        40
    62.5000        46
    62.5200        44
    62.5400        38
    62.5600        36
    62.5800        48
    62.6000        44
    62.6200        28
    62.6400        36
    62.6600        32
    62.6800        44
    62.7000        26
    62.7200        34
    62.7400        38
    62.7600        34
    62.7800        24
    62.8000        32
    62.8200        20
    62.8400        38
    62.8600        30
    62.8800        32
    62.9000        16
    62.9200        26
    62.9400        32
    62.9600        34
    62.9800        24
    63.0000        32
    63.0200        32
    63.0400        46
    63.0600        26
    63.0800        38
    63.1000        32
    63.1200        26
    63.1400        46
    63.1600        24
    63.1800        28
    63.2000        20
    63.2200        36
    63.2400        28
    63.2600        34
    63.2800        24
    63.3000        40
    63.3200        30
    63.3400        22
    63.3600        32
    63.3800        26
    63.4000        34
    63.4200        28
    63.4400        26
    63.4600        28
    63.4800        42
    63.5000        36
    63.5200        38
    63.5400        44
    63.5600        24
    63.5800        36
    63.6000        26
    63.6200        36
    63.6400        44
    63.6600        22
    63.6800        30
    63.7000        32
    63.7200        24
    63.7400        26
    63.7600        36
    63.7800        18
    63.8000        24
    63.8200        40
    63.8400        32
    63.8600        34
    63.8800        46
    63.9000        32
    63.9200        36
    63.9400        42
    63.9600        36
    63.9800        38
    64.0000        40
    64.0200        40
    64.0400        30
    64.0600        30
    64.0800        26
    64.1000        32
    64.1200        22
    64.1400        34
    64.1600        36
    64.1800        30
    64.2000        32
    64.2200        32
    64.2400        34
    64.2600        32
    64.2800        30
    64.3000        34
    64.3200        26
    64.3400        26
    64.3600        30
    64.3800        30
    64.4000        34
    64.4200        30
    64.4400        40
    64.4600        22
    64.4800        22
    64.5000        44
    64.5200        40
    64.5400        26
    64.5600        24
    64.5800        32
    64.6000        34
    64.6200        34
    64.6400        22
    64.6600        32
    64.6800        32
    64.7000        28
    64.7200        30
    64.7400        38
    64.7600        38
    64.7800        30
    64.8000        38
    64.8200        34
    64.8400        32
    64.8600        36
    64.8800        30
    64.9000        38
    64.9200        30
    64.9400        52
    64.9600        36
    64.9800        46
    65.0000        52
