/////////////////////////////////////////////////////////////////////////////////
/// Profile Data Ascii Dump (XRD)                                             ///
/////////////////////////////////////////////////////////////////////////////////

  Group     : Swayze
  Data      : GDS155
  File Name : GDS155.RAW

# Profile Datafile
          comment             = Clinochlore-ferrous 
          date & time         = 08-04-28 08:51:18 

# Measurement Condition
    X-ray tube
          target              = Cu 
          voltage             = 40.0 (kV)
          current             = 30.0 (mA)
    Slits
          divergence slit     = 2.00000 (deg) 
          scatter slit        = 2.00000 (deg) 
          receiving slit      = 0.15000 (mm)  
    Scanning
          drive axis          = Theta-2Theta 
          scan range          =    4.000 -   65.000 
          scan mode           = Continuous Scan 
          scan speed          =   2.0000 (deg/min) 
          sampling pitch      =   0.0200 (deg) 
          preset time         =   0.60 (sec) 

# Data      [ Total No. = 3051 ]
  <2Theta>   <   I   >
     4.0000       174
     4.0200       192
     4.0400       168
     4.0600       164
     4.0800       196
     4.1000       176
     4.1200       166
     4.1400       180
     4.1600       162
     4.1800       172
     4.2000       190
     4.2200       162
     4.2400       160
     4.2600       172
     4.2800       188
     4.3000       180
     4.3200       162
     4.3400       160
     4.3600       154
     4.3800       176
     4.4000       176
     4.4200       182
     4.4400       146
     4.4600       176
     4.4800       170
     4.5000       142
     4.5200       134
     4.5400       154
     4.5600       160
     4.5800       144
     4.6000       180
     4.6200       164
     4.6400       176
     4.6600       146
     4.6800       160
     4.7000       184
     4.7200       192
     4.7400       190
     4.7600       146
     4.7800       172
     4.8000       172
     4.8200       154
     4.8400       154
     4.8600       160
     4.8800       152
     4.9000       140
     4.9200       138
     4.9400       178
     4.9600       160
     4.9800       146
     5.0000       150
     5.0200       134
     5.0400       178
     5.0600       166
     5.0800       164
     5.1000       172
     5.1200       172
     5.1400       140
     5.1600       158
     5.1800       176
     5.2000       166
     5.2200       164
     5.2400       128
     5.2600       164
     5.2800       154
     5.3000       140
     5.3200       156
     5.3400       162
     5.3600       152
     5.3800       168
     5.4000       164
     5.4200       156
     5.4400       162
     5.4600       170
     5.4800       172
     5.5000       174
     5.5200       160
     5.5400       150
     5.5600       158
     5.5800       166
     5.6000       172
     5.6200       176
     5.6400       166
     5.6600       190
     5.6800       164
     5.7000       174
     5.7200       176
     5.7400       172
     5.7600       190
     5.7800       180
     5.8000       166
     5.8200       172
     5.8400       224
     5.8600       202
     5.8800       216
     5.9000       240
     5.9200       228
     5.9400       228
     5.9600       246
     5.9800       288
     6.0000       288
     6.0200       314
     6.0400       316
     6.0600       370
     6.0800       414
     6.1000       414
     6.1200       514
     6.1400       548
     6.1600       606
     6.1800       658
     6.2000       668
     6.2200       616
     6.2400       550
     6.2600       440
     6.2800       360
     6.3000       288
     6.3200       236
     6.3400       198
     6.3600       190
     6.3800       160
     6.4000       150
     6.4200       174
     6.4400       148
     6.4600       152
     6.4800       132
     6.5000       158
     6.5200       138
     6.5400       128
     6.5600       138
     6.5800       142
     6.6000       134
     6.6200       132
     6.6400       128
     6.6600       136
     6.6800       122
     6.7000       144
     6.7200       124
     6.7400       130
     6.7600       132
     6.7800       132
     6.8000       126
     6.8200       106
     6.8400       110
     6.8600       110
     6.8800       120
     6.9000       134
     6.9200       134
     6.9400       126
     6.9600       106
     6.9800       106
     7.0000       104
     7.0200       126
     7.0400       128
     7.0600       134
     7.0800       128
     7.1000       108
     7.1200       122
     7.1400       114
     7.1600       114
     7.1800       110
     7.2000       116
     7.2200       110
     7.2400       106
     7.2600       128
     7.2800       112
     7.3000        86
     7.3200       108
     7.3400        86
     7.3600       114
     7.3800       114
     7.4000       116
     7.4200       146
     7.4400       110
     7.4600       100
     7.4800       106
     7.5000        94
     7.5200       118
     7.5400        98
     7.5600       124
     7.5800       132
     7.6000       106
     7.6200       104
     7.6400       108
     7.6600       108
     7.6800       122
     7.7000       110
     7.7200       104
     7.7400       120
     7.7600       108
     7.7800       100
     7.8000       110
     7.8200        94
     7.8400       112
     7.8600       112
     7.8800       116
     7.9000        98
     7.9200       100
     7.9400       112
     7.9600       114
     7.9800       106
     8.0000       106
     8.0200       106
     8.0400       110
     8.0600        96
     8.0800       108
     8.1000       106
     8.1200        98
     8.1400       114
     8.1600       110
     8.1800       142
     8.2000       128
     8.2200       112
     8.2400       134
     8.2600       102
     8.2800       116
     8.3000       130
     8.3200       116
     8.3400       110
     8.3600       110
     8.3800       120
     8.4000       116
     8.4200        94
     8.4400       100
     8.4600       116
     8.4800        98
     8.5000       120
     8.5200       102
     8.5400       106
     8.5600       136
     8.5800       118
     8.6000       120
     8.6200       102
     8.6400       118
     8.6600        94
     8.6800       106
     8.7000       114
     8.7200        84
     8.7400       124
     8.7600       116
     8.7800       108
     8.8000       112
     8.8200       116
     8.8400       118
     8.8600       108
     8.8800       110
     8.9000       102
     8.9200       100
     8.9400       110
     8.9600       100
     8.9800       112
     9.0000        98
     9.0200       126
     9.0400       110
     9.0600       106
     9.0800       106
     9.1000       108
     9.1200       106
     9.1400       100
     9.1600       102
     9.1800       140
     9.2000       128
     9.2200       100
     9.2400       118
     9.2600       108
     9.2800       122
     9.3000       124
     9.3200       118
     9.3400       124
     9.3600       104
     9.3800        82
     9.4000       102
     9.4200       102
     9.4400       118
     9.4600        94
     9.4800       130
     9.5000       124
     9.5200       120
     9.5400       106
     9.5600       114
     9.5800       112
     9.6000        88
     9.6200       110
     9.6400        96
     9.6600       108
     9.6800       104
     9.7000        90
     9.7200        98
     9.7400       134
     9.7600        92
     9.7800       104
     9.8000       102
     9.8200       104
     9.8400       114
     9.8600        96
     9.8800       118
     9.9000       104
     9.9200       106
     9.9400       102
     9.9600       100
     9.9800        88
    10.0000       116
    10.0200       110
    10.0400        90
    10.0600       104
    10.0800       108
    10.1000       104
    10.1200       112
    10.1400       102
    10.1600       108
    10.1800        92
    10.2000       108
    10.2200        82
    10.2400        88
    10.2600       110
    10.2800        92
    10.3000       128
    10.3200       112
    10.3400        94
    10.3600        92
    10.3800       102
    10.4000        96
    10.4200       124
    10.4400        86
    10.4600        90
    10.4800        84
    10.5000        94
    10.5200       124
    10.5400        96
    10.5600       106
    10.5800       102
    10.6000        86
    10.6200        82
    10.6400        88
    10.6600        88
    10.6800        98
    10.7000        98
    10.7200        98
    10.7400       104
    10.7600        82
    10.7800       110
    10.8000       100
    10.8200       108
    10.8400        84
    10.8600        84
    10.8800        96
    10.9000        94
    10.9200       102
    10.9400       100
    10.9600        94
    10.9800       110
    11.0000       102
    11.0200       114
    11.0400       114
    11.0600        80
    11.0800        76
    11.1000        96
    11.1200       102
    11.1400       104
    11.1600       100
    11.1800       110
    11.2000       112
    11.2200       100
    11.2400       104
    11.2600        94
    11.2800        90
    11.3000        88
    11.3200        94
    11.3400        86
    11.3600        80
    11.3800        84
    11.4000       108
    11.4200        86
    11.4400        88
    11.4600        90
    11.4800       106
    11.5000        92
    11.5200       110
    11.5400        96
    11.5600        94
    11.5800       112
    11.6000        88
    11.6200        92
    11.6400        88
    11.6600        96
    11.6800       108
    11.7000       108
    11.7200        92
    11.7400       106
    11.7600        98
    11.7800       118
    11.8000       126
    11.8200       112
    11.8400       116
    11.8600       138
    11.8800       142
    11.9000       176
    11.9200       142
    11.9400       152
    11.9600       192
    11.9800       186
    12.0000       176
    12.0200       234
    12.0400       240
    12.0600       258
    12.0800       272
    12.1000       278
    12.1200       306
    12.1400       358
    12.1600       380
    12.1800       422
    12.2000       476
    12.2200       584
    12.2400       654
    12.2600       744
    12.2800       920
    12.3000      1124
    12.3200      1396
    12.3400      1528
    12.3600      1798
    12.3800      2146
    12.4000      2360
    12.4200      2644
    12.4400      2904
    12.4600      2844
    12.4800      2626
    12.5000      2178
    12.5200      1800
    12.5400      1392
    12.5600       966
    12.5800       662
    12.6000       474
    12.6200       376
    12.6400       302
    12.6600       212
    12.6800       168
    12.7000       160
    12.7200       144
    12.7400       130
    12.7600       116
    12.7800       106
    12.8000        94
    12.8200       100
    12.8400        78
    12.8600        74
    12.8800       100
    12.9000        80
    12.9200        64
    12.9400        78
    12.9600        76
    12.9800        70
    13.0000        80
    13.0200        80
    13.0400        74
    13.0600        76
    13.0800        80
    13.1000        70
    13.1200        76
    13.1400        78
    13.1600        70
    13.1800        72
    13.2000        76
    13.2200        72
    13.2400        74
    13.2600        78
    13.2800        66
    13.3000        64
    13.3200        76
    13.3400        76
    13.3600        64
    13.3800        80
    13.4000        60
    13.4200        66
    13.4400        68
    13.4600        62
    13.4800        72
    13.5000        80
    13.5200        72
    13.5400        70
    13.5600        66
    13.5800        84
    13.6000        72
    13.6200        84
    13.6400        66
    13.6600        74
    13.6800        72
    13.7000        58
    13.7200        78
    13.7400        54
    13.7600        68
    13.7800        82
    13.8000        74
    13.8200        82
    13.8400        64
    13.8600        52
    13.8800        68
    13.9000        60
    13.9200        60
    13.9400        62
    13.9600        62
    13.9800        94
    14.0000        66
    14.0200        76
    14.0400        68
    14.0600        58
    14.0800        60
    14.1000        68
    14.1200        58
    14.1400        68
    14.1600        62
    14.1800        60
    14.2000        54
    14.2200        62
    14.2400        64
    14.2600        62
    14.2800        60
    14.3000        70
    14.3200        62
    14.3400        80
    14.3600        64
    14.3800        52
    14.4000        48
    14.4200        70
    14.4400        82
    14.4600        52
    14.4800        68
    14.5000        62
    14.5200        82
    14.5400        54
    14.5600        60
    14.5800        58
    14.6000        56
    14.6200        62
    14.6400        76
    14.6600        74
    14.6800        64
    14.7000        58
    14.7200        58
    14.7400        48
    14.7600        74
    14.7800        70
    14.8000        58
    14.8200        62
    14.8400        48
    14.8600        74
    14.8800        56
    14.9000        56
    14.9200        58
    14.9400        66
    14.9600        72
    14.9800        66
    15.0000        66
    15.0200        66
    15.0400        72
    15.0600        64
    15.0800        58
    15.1000        80
    15.1200        56
    15.1400        60
    15.1600        62
    15.1800        50
    15.2000        66
    15.2200        54
    15.2400        68
    15.2600        74
    15.2800        70
    15.3000        56
    15.3200        58
    15.3400        66
    15.3600        54
    15.3800        58
    15.4000        52
    15.4200        50
    15.4400        80
    15.4600        54
    15.4800        56
    15.5000        74
    15.5200        50
    15.5400        68
    15.5600        58
    15.5800        60
    15.6000        62
    15.6200        44
    15.6400        52
    15.6600        50
    15.6800        50
    15.7000        46
    15.7200        54
    15.7400        54
    15.7600        54
    15.7800        46
    15.8000        52
    15.8200        60
    15.8400        46
    15.8600        70
    15.8800        46
    15.9000        58
    15.9200        70
    15.9400        42
    15.9600        58
    15.9800        66
    16.0000        54
    16.0200        54
    16.0400        50
    16.0600        56
    16.0800        66
    16.1000        52
    16.1200        58
    16.1400        52
    16.1600        60
    16.1800        52
    16.2000        58
    16.2200        46
    16.2400        54
    16.2600        64
    16.2800        50
    16.3000        58
    16.3200        56
    16.3400        56
    16.3600        56
    16.3800        64
    16.4000        58
    16.4200        50
    16.4400        50
    16.4600        44
    16.4800        64
    16.5000        50
    16.5200        54
    16.5400        72
    16.5600        60
    16.5800        50
    16.6000        56
    16.6200        50
    16.6400        52
    16.6600        50
    16.6800        58
    16.7000        60
    16.7200        56
    16.7400        62
    16.7600        60
    16.7800        54
    16.8000        56
    16.8200        60
    16.8400        62
    16.8600        60
    16.8800        66
    16.9000        62
    16.9200        54
    16.9400        62
    16.9600        56
    16.9800        60
    17.0000        60
    17.0200        52
    17.0400        52
    17.0600        66
    17.0800        46
    17.1000        58
    17.1200        54
    17.1400        68
    17.1600        54
    17.1800        52
    17.2000        52
    17.2200        50
    17.2400        56
    17.2600        64
    17.2800        62
    17.3000        50
    17.3200        54
    17.3400        72
    17.3600        64
    17.3800        58
    17.4000        52
    17.4200        48
    17.4400        44
    17.4600        66
    17.4800        56
    17.5000        56
    17.5200        54
    17.5400        62
    17.5600        48
    17.5800        60
    17.6000        40
    17.6200        60
    17.6400        58
    17.6600        44
    17.6800        46
    17.7000        64
    17.7200        58
    17.7400        56
    17.7600        60
    17.7800        60
    17.8000        58
    17.8200        58
    17.8400        60
    17.8600        54
    17.8800        64
    17.9000        64
    17.9200        56
    17.9400        62
    17.9600        68
    17.9800        54
    18.0000        60
    18.0200        50
    18.0400        52
    18.0600        52
    18.0800        74
    18.1000        58
    18.1200        62
    18.1400        70
    18.1600        82
    18.1800        60
    18.2000        80
    18.2200        66
    18.2400        86
    18.2600        88
    18.2800        62
    18.3000       104
    18.3200        96
    18.3400        90
    18.3600       120
    18.3800       120
    18.4000       124
    18.4200       152
    18.4400       178
    18.4600       194
    18.4800       222
    18.5000       242
    18.5200       274
    18.5400       296
    18.5600       390
    18.5800       404
    18.6000       532
    18.6200       634
    18.6400       794
    18.6600       890
    18.6800      1042
    18.7000      1146
    18.7200      1346
    18.7400      1354
    18.7600      1410
    18.7800      1258
    18.8000      1134
    18.8200       880
    18.8400       672
    18.8600       524
    18.8800       394
    18.9000       278
    18.9200       222
    18.9400       182
    18.9600       146
    18.9800       130
    19.0000        84
    19.0200        88
    19.0400        84
    19.0600        96
    19.0800        82
    19.1000        80
    19.1200        78
    19.1400        72
    19.1600        74
    19.1800        68
    19.2000        60
    19.2200        76
    19.2400        84
    19.2600        62
    19.2800        82
    19.3000        60
    19.3200        78
    19.3400        62
    19.3600        66
    19.3800        42
    19.4000        58
    19.4200        54
    19.4400        54
    19.4600        68
    19.4800        62
    19.5000        66
    19.5200        52
    19.5400        58
    19.5600        72
    19.5800        56
    19.6000        58
    19.6200        50
    19.6400        52
    19.6600        52
    19.6800        56
    19.7000        68
    19.7200        62
    19.7400        52
    19.7600        50
    19.7800        46
    19.8000        50
    19.8200        48
    19.8400        60
    19.8600        60
    19.8800        56
    19.9000        44
    19.9200        56
    19.9400        50
    19.9600        46
    19.9800        58
    20.0000        60
    20.0200        70
    20.0400        62
    20.0600        60
    20.0800        62
    20.1000        44
    20.1200        56
    20.1400        54
    20.1600        60
    20.1800        56
    20.2000        52
    20.2200        54
    20.2400        50
    20.2600        46
    20.2800        78
    20.3000        48
    20.3200        48
    20.3400        52
    20.3600        50
    20.3800        50
    20.4000        46
    20.4200        44
    20.4400        54
    20.4600        46
    20.4800        44
    20.5000        46
    20.5200        58
    20.5400        58
    20.5600        46
    20.5800        64
    20.6000        52
    20.6200        62
    20.6400        52
    20.6600        58
    20.6800        46
    20.7000        52
    20.7200        32
    20.7400        44
    20.7600        48
    20.7800        52
    20.8000        42
    20.8200        62
    20.8400        54
    20.8600        58
    20.8800        60
    20.9000        44
    20.9200        52
    20.9400        52
    20.9600        48
    20.9800        56
    21.0000        52
    21.0200        42
    21.0400        50
    21.0600        54
    21.0800        72
    21.1000        48
    21.1200        60
    21.1400        58
    21.1600        44
    21.1800        64
    21.2000        60
    21.2200        54
    21.2400        58
    21.2600        42
    21.2800        48
    21.3000        46
    21.3200        44
    21.3400        48
    21.3600        56
    21.3800        54
    21.4000        40
    21.4200        44
    21.4400        40
    21.4600        42
    21.4800        58
    21.5000        44
    21.5200        58
    21.5400        42
    21.5600        56
    21.5800        50
    21.6000        36
    21.6200        46
    21.6400        42
    21.6600        48
    21.6800        52
    21.7000        56
    21.7200        58
    21.7400        50
    21.7600        50
    21.7800        52
    21.8000        56
    21.8200        50
    21.8400        48
    21.8600        56
    21.8800        70
    21.9000        44
    21.9200        54
    21.9400        66
    21.9600        46
    21.9800        64
    22.0000        48
    22.0200        52
    22.0400        56
    22.0600        48
    22.0800        48
    22.1000        36
    22.1200        36
    22.1400        44
    22.1600        50
    22.1800        50
    22.2000        50
    22.2200        48
    22.2400        40
    22.2600        48
    22.2800        56
    22.3000        50
    22.3200        40
    22.3400        34
    22.3600        46
    22.3800        48
    22.4000        40
    22.4200        48
    22.4400        56
    22.4600        46
    22.4800        58
    22.5000        64
    22.5200        50
    22.5400        50
    22.5600        58
    22.5800        46
    22.6000        62
    22.6200        60
    22.6400        60
    22.6600        58
    22.6800        44
    22.7000        62
    22.7200        54
    22.7400        52
    22.7600        62
    22.7800        62
    22.8000        42
    22.8200        50
    22.8400        50
    22.8600        50
    22.8800        48
    22.9000        48
    22.9200        34
    22.9400        46
    22.9600        46
    22.9800        52
    23.0000        44
    23.0200        46
    23.0400        44
    23.0600        46
    23.0800        56
    23.1000        28
    23.1200        52
    23.1400        36
    23.1600        70
    23.1800        48
    23.2000        36
    23.2200        52
    23.2400        48
    23.2600        52
    23.2800        42
    23.3000        54
    23.3200        60
    23.3400        68
    23.3600        48
    23.3800        64
    23.4000        58
    23.4200        58
    23.4400        52
    23.4600        38
    23.4800        56
    23.5000        44
    23.5200        44
    23.5400        68
    23.5600        32
    23.5800        44
    23.6000        56
    23.6200        48
    23.6400        50
    23.6600        42
    23.6800        50
    23.7000        58
    23.7200        52
    23.7400        50
    23.7600        50
    23.7800        62
    23.8000        50
    23.8200        48
    23.8400        52
    23.8600        56
    23.8800        62
    23.9000        76
    23.9200        54
    23.9400        58
    23.9600        50
    23.9800        64
    24.0000        72
    24.0200        50
    24.0400        84
    24.0600        56
    24.0800        62
    24.1000        72
    24.1200        66
    24.1400        64
    24.1600        52
    24.1800        50
    24.2000        68
    24.2200        68
    24.2400        76
    24.2600        54
    24.2800        66
    24.3000        64
    24.3200        66
    24.3400        66
    24.3600        68
    24.3800        54
    24.4000        80
    24.4200        62
    24.4400        68
    24.4600        62
    24.4800        68
    24.5000        62
    24.5200        72
    24.5400        64
    24.5600        82
    24.5800        74
    24.6000        88
    24.6200        92
    24.6400       110
    24.6600       104
    24.6800       120
    24.7000       134
    24.7200       162
    24.7400       196
    24.7600       218
    24.7800       244
    24.8000       286
    24.8200       354
    24.8400       388
    24.8600       480
    24.8800       592
    24.9000       762
    24.9200       910
    24.9400      1076
    24.9600      1376
    24.9800      1682
    25.0000      2104
    25.0200      2528
    25.0400      3096
    25.0600      3474
    25.0800      3746
    25.1000      3914
    25.1200      3736
    25.1400      3308
    25.1600      3070
    25.1800      2396
    25.2000      1940
    25.2200      1408
    25.2400      1096
    25.2600       756
    25.2800       546
    25.3000       396
    25.3200       296
    25.3400       234
    25.3600       160
    25.3800       160
    25.4000       128
    25.4200       126
    25.4400        80
    25.4600        84
    25.4800       100
    25.5000        74
    25.5200        84
    25.5400        76
    25.5600        58
    25.5800        52
    25.6000        62
    25.6200        46
    25.6400        52
    25.6600        38
    25.6800        54
    25.7000        48
    25.7200        50
    25.7400        64
    25.7600        50
    25.7800        58
    25.8000        44
    25.8200        58
    25.8400        50
    25.8600        56
    25.8800        46
    25.9000        36
    25.9200        64
    25.9400        50
    25.9600        48
    25.9800        48
    26.0000        50
    26.0200        50
    26.0400        52
    26.0600        34
    26.0800        38
    26.1000        52
    26.1200        34
    26.1400        52
    26.1600        44
    26.1800        48
    26.2000        46
    26.2200        40
    26.2400        46
    26.2600        38
    26.2800        40
    26.3000        42
    26.3200        44
    26.3400        44
    26.3600        34
    26.3800        48
    26.4000        46
    26.4200        52
    26.4400        48
    26.4600        56
    26.4800        50
    26.5000        40
    26.5200        52
    26.5400        48
    26.5600        42
    26.5800        48
    26.6000        38
    26.6200        42
    26.6400        36
    26.6600        42
    26.6800        40
    26.7000        44
    26.7200        44
    26.7400        42
    26.7600        40
    26.7800        42
    26.8000        46
    26.8200        40
    26.8400        44
    26.8600        40
    26.8800        32
    26.9000        44
    26.9200        42
    26.9400        38
    26.9600        38
    26.9800        46
    27.0000        46
    27.0200        44
    27.0400        38
    27.0600        40
    27.0800        34
    27.1000        52
    27.1200        34
    27.1400        36
    27.1600        32
    27.1800        38
    27.2000        50
    27.2200        34
    27.2400        24
    27.2600        28
    27.2800        38
    27.3000        46
    27.3200        42
    27.3400        36
    27.3600        50
    27.3800        36
    27.4000        40
    27.4200        38
    27.4400        40
    27.4600        50
    27.4800        34
    27.5000        44
    27.5200        26
    27.5400        32
    27.5600        48
    27.5800        32
    27.6000        40
    27.6200        28
    27.6400        40
    27.6600        36
    27.6800        32
    27.7000        36
    27.7200        40
    27.7400        46
    27.7600        34
    27.7800        36
    27.8000        34
    27.8200        42
    27.8400        38
    27.8600        42
    27.8800        38
    27.9000        30
    27.9200        38
    27.9400        42
    27.9600        38
    27.9800        42
    28.0000        28
    28.0200        50
    28.0400        40
    28.0600        44
    28.0800        30
    28.1000        26
    28.1200        28
    28.1400        38
    28.1600        24
    28.1800        46
    28.2000        30
    28.2200        26
    28.2400        38
    28.2600        28
    28.2800        34
    28.3000        38
    28.3200        32
    28.3400        46
    28.3600        36
    28.3800        44
    28.4000        34
    28.4200        34
    28.4400        36
    28.4600        40
    28.4800        36
    28.5000        48
    28.5200        38
    28.5400        48
    28.5600        38
    28.5800        46
    28.6000        36
    28.6200        32
    28.6400        38
    28.6600        24
    28.6800        42
    28.7000        40
    28.7200        36
    28.7400        32
    28.7600        38
    28.7800        46
    28.8000        32
    28.8200        52
    28.8400        30
    28.8600        38
    28.8800        34
    28.9000        26
    28.9200        34
    28.9400        50
    28.9600        40
    28.9800        30
    29.0000        42
    29.0200        30
    29.0400        34
    29.0600        42
    29.0800        20
    29.1000        26
    29.1200        32
    29.1400        30
    29.1600        30
    29.1800        48
    29.2000        42
    29.2200        32
    29.2400        46
    29.2600        44
    29.2800        30
    29.3000        30
    29.3200        44
    29.3400        40
    29.3600        34
    29.3800        42
    29.4000        32
    29.4200        30
    29.4400        40
    29.4600        36
    29.4800        38
    29.5000        34
    29.5200        30
    29.5400        38
    29.5600        30
    29.5800        42
    29.6000        30
    29.6200        40
    29.6400        48
    29.6600        38
    29.6800        36
    29.7000        32
    29.7200        40
    29.7400        40
    29.7600        44
    29.7800        34
    29.8000        30
    29.8200        44
    29.8400        42
    29.8600        30
    29.8800        30
    29.9000        36
    29.9200        36
    29.9400        44
    29.9600        34
    29.9800        32
    30.0000        28
    30.0200        34
    30.0400        42
    30.0600        36
    30.0800        36
    30.1000        38
    30.1200        34
    30.1400        52
    30.1600        40
    30.1800        34
    30.2000        36
    30.2200        52
    30.2400        36
    30.2600        38
    30.2800        40
    30.3000        48
    30.3200        34
    30.3400        46
    30.3600        46
    30.3800        42
    30.4000        36
    30.4200        38
    30.4400        46
    30.4600        26
    30.4800        52
    30.5000        40
    30.5200        36
    30.5400        30
    30.5600        32
    30.5800        30
    30.6000        40
    30.6200        44
    30.6400        48
    30.6600        30
    30.6800        48
    30.7000        40
    30.7200        40
    30.7400        30
    30.7600        38
    30.7800        34
    30.8000        34
    30.8200        20
    30.8400        40
    30.8600        46
    30.8800        40
    30.9000        44
    30.9200        32
    30.9400        32
    30.9600        52
    30.9800        42
    31.0000        38
    31.0200        38
    31.0400        40
    31.0600        50
    31.0800        46
    31.1000        40
    31.1200        48
    31.1400        46
    31.1600        58
    31.1800        74
    31.2000        70
    31.2200        86
    31.2400        70
    31.2600        68
    31.2800        88
    31.3000       108
    31.3200       122
    31.3400       154
    31.3600       174
    31.3800       254
    31.4000       332
    31.4200       412
    31.4400       508
    31.4600       628
    31.4800       688
    31.5000       826
    31.5200       880
    31.5400       872
    31.5600       800
    31.5800       724
    31.6000       704
    31.6200       602
    31.6400       504
    31.6600       376
    31.6800       288
    31.7000       220
    31.7200       174
    31.7400       118
    31.7600       110
    31.7800        70
    31.8000        72
    31.8200        58
    31.8400        56
    31.8600        58
    31.8800        40
    31.9000        48
    31.9200        42
    31.9400        32
    31.9600        48
    31.9800        34
    32.0000        44
    32.0200        38
    32.0400        40
    32.0600        40
    32.0800        38
    32.1000        40
    32.1200        40
    32.1400        36
    32.1600        42
    32.1800        36
    32.2000        48
    32.2200        36
    32.2400        36
    32.2600        28
    32.2800        40
    32.3000        32
    32.3200        30
    32.3400        32
    32.3600        32
    32.3800        30
    32.4000        46
    32.4200        36
    32.4400        34
    32.4600        40
    32.4800        34
    32.5000        40
    32.5200        50
    32.5400        30
    32.5600        38
    32.5800        26
    32.6000        46
    32.6200        36
    32.6400        46
    32.6600        48
    32.6800        34
    32.7000        52
    32.7200        44
    32.7400        48
    32.7600        44
    32.7800        46
    32.8000        32
    32.8200        38
    32.8400        26
    32.8600        32
    32.8800        30
    32.9000        34
    32.9200        32
    32.9400        40
    32.9600        36
    32.9800        34
    33.0000        34
    33.0200        30
    33.0400        32
    33.0600        34
    33.0800        34
    33.1000        24
    33.1200        34
    33.1400        44
    33.1600        34
    33.1800        34
    33.2000        24
    33.2200        30
    33.2400        34
    33.2600        34
    33.2800        38
    33.3000        28
    33.3200        32
    33.3400        30
    33.3600        28
    33.3800        56
    33.4000        36
    33.4200        38
    33.4400        42
    33.4600        40
    33.4800        38
    33.5000        32
    33.5200        42
    33.5400        48
    33.5600        38
    33.5800        38
    33.6000        38
    33.6200        38
    33.6400        36
    33.6600        36
    33.6800        36
    33.7000        46
    33.7200        40
    33.7400        36
    33.7600        38
    33.7800        34
    33.8000        36
    33.8200        34
    33.8400        30
    33.8600        40
    33.8800        30
    33.9000        42
    33.9200        36
    33.9400        30
    33.9600        40
    33.9800        40
    34.0000        46
    34.0200        34
    34.0400        32
    34.0600        26
    34.0800        24
    34.1000        36
    34.1200        28
    34.1400        36
    34.1600        42
    34.1800        42
    34.2000        32
    34.2200        42
    34.2400        54
    34.2600        56
    34.2800        44
    34.3000        52
    34.3200        42
    34.3400        50
    34.3600        76
    34.3800        76
    34.4000        84
    34.4200        76
    34.4400        94
    34.4600        72
    34.4800        94
    34.5000        84
    34.5200        88
    34.5400        74
    34.5600        68
    34.5800        66
    34.6000        58
    34.6200        54
    34.6400        54
    34.6600        46
    34.6800        48
    34.7000        58
    34.7200        46
    34.7400        48
    34.7600        40
    34.7800        52
    34.8000        50
    34.8200        40
    34.8400        52
    34.8600        42
    34.8800        44
    34.9000        52
    34.9200        52
    34.9400        62
    34.9600        68
    34.9800        72
    35.0000        80
    35.0200        84
    35.0400       104
    35.0600        86
    35.0800       102
    35.1000        84
    35.1200        84
    35.1400        82
    35.1600        86
    35.1800        72
    35.2000        62
    35.2200        66
    35.2400        52
    35.2600        54
    35.2800        46
    35.3000        54
    35.3200        38
    35.3400        42
    35.3600        52
    35.3800        42
    35.4000        34
    35.4200        30
    35.4400        46
    35.4600        36
    35.4800        34
    35.5000        30
    35.5200        34
    35.5400        50
    35.5600        30
    35.5800        38
    35.6000        34
    35.6200        40
    35.6400        46
    35.6600        38
    35.6800        28
    35.7000        36
    35.7200        32
    35.7400        34
    35.7600        36
    35.7800        20
    35.8000        28
    35.8200        28
    35.8400        32
    35.8600        34
    35.8800        38
    35.9000        30
    35.9200        28
    35.9400        24
    35.9600        34
    35.9800        34
    36.0000        36
    36.0200        38
    36.0400        30
    36.0600        32
    36.0800        20
    36.1000        42
    36.1200        32
    36.1400        42
    36.1600        40
    36.1800        36
    36.2000        44
    36.2200        38
    36.2400        38
    36.2600        30
    36.2800        36
    36.3000        44
    36.3200        40
    36.3400        46
    36.3600        46
    36.3800        48
    36.4000        62
    36.4200        42
    36.4400        48
    36.4600        72
    36.4800        48
    36.5000        82
    36.5200        80
    36.5400        94
    36.5600        76
    36.5800        96
    36.6000        84
    36.6200        84
    36.6400        94
    36.6600        76
    36.6800        76
    36.7000        84
    36.7200        64
    36.7400        62
    36.7600        68
    36.7800        60
    36.8000        42
    36.8200        64
    36.8400        54
    36.8600        48
    36.8800        34
    36.9000        30
    36.9200        44
    36.9400        34
    36.9600        44
    36.9800        42
    37.0000        32
    37.0200        42
    37.0400        32
    37.0600        40
    37.0800        32
    37.1000        38
    37.1200        34
    37.1400        40
    37.1600        38
    37.1800        30
    37.2000        34
    37.2200        50
    37.2400        48
    37.2600        42
    37.2800        34
    37.3000        46
    37.3200        32
    37.3400        48
    37.3600        40
    37.3800        48
    37.4000        64
    37.4200        70
    37.4400        64
    37.4600        62
    37.4800        64
    37.5000        92
    37.5200        80
    37.5400       100
    37.5600        92
    37.5800        80
    37.6000        86
    37.6200        84
    37.6400        92
    37.6600        72
    37.6800        60
    37.7000        66
    37.7200        58
    37.7400        44
    37.7600        48
    37.7800        62
    37.8000        34
    37.8200        38
    37.8400        42
    37.8600        46
    37.8800        32
    37.9000        42
    37.9200        60
    37.9400        42
    37.9600        48
    37.9800        42
    38.0000        48
    38.0200        38
    38.0400        38
    38.0600        38
    38.0800        46
    38.1000        38
    38.1200        34
    38.1400        34
    38.1600        42
    38.1800        46
    38.2000        46
    38.2200        34
    38.2400        40
    38.2600        34
    38.2800        28
    38.3000        30
    38.3200        34
    38.3400        46
    38.3600        28
    38.3800        20
    38.4000        26
    38.4200        42
    38.4400        36
    38.4600        36
    38.4800        32
    38.5000        34
    38.5200        28
    38.5400        30
    38.5600        34
    38.5800        38
    38.6000        32
    38.6200        30
    38.6400        32
    38.6600        36
    38.6800        46
    38.7000        42
    38.7200        40
    38.7400        36
    38.7600        38
    38.7800        40
    38.8000        38
    38.8200        30
    38.8400        22
    38.8600        42
    38.8800        38
    38.9000        32
    38.9200        40
    38.9400        30
    38.9600        34
    38.9800        30
    39.0000        34
    39.0200        30
    39.0400        36
    39.0600        38
    39.0800        32
    39.1000        38
    39.1200        42
    39.1400        28
    39.1600        24
    39.1800        32
    39.2000        42
    39.2200        32
    39.2400        30
    39.2600        38
    39.2800        38
    39.3000        36
    39.3200        32
    39.3400        26
    39.3600        26
    39.3800        36
    39.4000        26
    39.4200        26
    39.4400        38
    39.4600        42
    39.4800        54
    39.5000        42
    39.5200        48
    39.5400        50
    39.5600        62
    39.5800        50
    39.6000        62
    39.6200        72
    39.6400        82
    39.6600        70
    39.6800        76
    39.7000        86
    39.7200        84
    39.7400        70
    39.7600        72
    39.7800        72
    39.8000        64
    39.8200        78
    39.8400        74
    39.8600        68
    39.8800        76
    39.9000        68
    39.9200        66
    39.9400        44
    39.9600        42
    39.9800        38
    40.0000        40
    40.0200        44
    40.0400        42
    40.0600        28
    40.0800        28
    40.1000        40
    40.1200        24
    40.1400        34
    40.1600        34
    40.1800        26
    40.2000        34
    40.2200        40
    40.2400        28
    40.2600        38
    40.2800        32
    40.3000        30
    40.3200        30
    40.3400        20
    40.3600        36
    40.3800        34
    40.4000        28
    40.4200        24
    40.4400        36
    40.4600        22
    40.4800        32
    40.5000        20
    40.5200        26
    40.5400        32
    40.5600        28
    40.5800        26
    40.6000        30
    40.6200        28
    40.6400        26
    40.6600        24
    40.6800        20
    40.7000        36
    40.7200        24
    40.7400        34
    40.7600        26
    40.7800        26
    40.8000        32
    40.8200        20
    40.8400        26
    40.8600        32
    40.8800        28
    40.9000        12
    40.9200        34
    40.9400        34
    40.9600        34
    40.9800        24
    41.0000        24
    41.0200        24
    41.0400        26
    41.0600        34
    41.0800        42
    41.1000        30
    41.1200        34
    41.1400        40
    41.1600        38
    41.1800        32
    41.2000        26
    41.2200        28
    41.2400        24
    41.2600        34
    41.2800        22
    41.3000        20
    41.3200        20
    41.3400        28
    41.3600        38
    41.3800        18
    41.4000        26
    41.4200        20
    41.4400        18
    41.4600        38
    41.4800        26
    41.5000        24
    41.5200        20
    41.5400        30
    41.5600        20
    41.5800        24
    41.6000        34
    41.6200        38
    41.6400        18
    41.6600        24
    41.6800        24
    41.7000        28
    41.7200        28
    41.7400        20
    41.7600        22
    41.7800        18
    41.8000        30
    41.8200        28
    41.8400        24
    41.8600        28
    41.8800        30
    41.9000        28
    41.9200        28
    41.9400        16
    41.9600        46
    41.9800        22
    42.0000        28
    42.0200        34
    42.0400        22
    42.0600        26
    42.0800        34
    42.1000        30
    42.1200        40
    42.1400        32
    42.1600        32
    42.1800        30
    42.2000        30
    42.2200        30
    42.2400        26
    42.2600        26
    42.2800        36
    42.3000        28
    42.3200        24
    42.3400        20
    42.3600        30
    42.3800        16
    42.4000        32
    42.4200        34
    42.4400        32
    42.4600        28
    42.4800        26
    42.5000        30
    42.5200        22
    42.5400        24
    42.5600        28
    42.5800        36
    42.6000        20
    42.6200        34
    42.6400        34
    42.6600        26
    42.6800        28
    42.7000        28
    42.7200        36
    42.7400        40
    42.7600        30
    42.7800        50
    42.8000        36
    42.8200        30
    42.8400        20
    42.8600        38
    42.8800        28
    42.9000        26
    42.9200        26
    42.9400        42
    42.9600        22
    42.9800        28
    43.0000        26
    43.0200        26
    43.0400        30
    43.0600        38
    43.0800        26
    43.1000        30
    43.1200        36
    43.1400        24
    43.1600        32
    43.1800        24
    43.2000        42
    43.2200        32
    43.2400        24
    43.2600        32
    43.2800        24
    43.3000        44
    43.3200        24
    43.3400        38
    43.3600        26
    43.3800        36
    43.4000        26
    43.4200        24
    43.4400        22
    43.4600        36
    43.4800        40
    43.5000        42
    43.5200        30
    43.5400        30
    43.5600        38
    43.5800        38
    43.6000        38
    43.6200        38
    43.6400        36
    43.6600        40
    43.6800        46
    43.7000        32
    43.7200        34
    43.7400        46
    43.7600        20
    43.7800        32
    43.8000        30
    43.8200        30
    43.8400        30
    43.8600        48
    43.8800        22
    43.9000        28
    43.9200        42
    43.9400        34
    43.9600        38
    43.9800        30
    44.0000        28
    44.0200        40
    44.0400        32
    44.0600        32
    44.0800        34
    44.1000        38
    44.1200        32
    44.1400        36
    44.1600        28
    44.1800        26
    44.2000        34
    44.2200        34
    44.2400        22
    44.2600        36
    44.2800        34
    44.3000        32
    44.3200        34
    44.3400        34
    44.3600        34
    44.3800        38
    44.4000        44
    44.4200        46
    44.4400        38
    44.4600        44
    44.4800        38
    44.5000        46
    44.5200        56
    44.5400        58
    44.5600        56
    44.5800        60
    44.6000        74
    44.6200        90
    44.6400       104
    44.6600       114
    44.6800       150
    44.7000       176
    44.7200       216
    44.7400       206
    44.7600       214
    44.7800       220
    44.8000       218
    44.8200       218
    44.8400       200
    44.8600       158
    44.8800       166
    44.9000       158
    44.9200       138
    44.9400       126
    44.9600       140
    44.9800       134
    45.0000       152
    45.0200       130
    45.0400       146
    45.0600       140
    45.0800       186
    45.1000       142
    45.1200       172
    45.1400       166
    45.1600       142
    45.1800       148
    45.2000       156
    45.2200       122
    45.2400       118
    45.2600       106
    45.2800       110
    45.3000        94
    45.3200       108
    45.3400        96
    45.3600        60
    45.3800        74
    45.4000        62
    45.4200        52
    45.4400        34
    45.4600        52
    45.4800        34
    45.5000        38
    45.5200        44
    45.5400        44
    45.5600        20
    45.5800        58
    45.6000        30
    45.6200        46
    45.6400        34
    45.6600        30
    45.6800        34
    45.7000        28
    45.7200        28
    45.7400        40
    45.7600        28
    45.7800        40
    45.8000        28
    45.8200        32
    45.8400        32
    45.8600        26
    45.8800        28
    45.9000        42
    45.9200        24
    45.9400        32
    45.9600        28
    45.9800        32
    46.0000        32
    46.0200        38
    46.0400        26
    46.0600        34
    46.0800        26
    46.1000        30
    46.1200        34
    46.1400        32
    46.1600        24
    46.1800        26
    46.2000        32
    46.2200        28
    46.2400        24
    46.2600        32
    46.2800        28
    46.3000        34
    46.3200        38
    46.3400        24
    46.3600        20
    46.3800        26
    46.4000        34
    46.4200        26
    46.4400        32
    46.4600        46
    46.4800        28
    46.5000        24
    46.5200        20
    46.5400        36
    46.5600        30
    46.5800        26
    46.6000        26
    46.6200        36
    46.6400        26
    46.6600        24
    46.6800        18
    46.7000        32
    46.7200        30
    46.7400        28
    46.7600        24
    46.7800        30
    46.8000        36
    46.8200        32
    46.8400        38
    46.8600        34
    46.8800        30
    46.9000        28
    46.9200        42
    46.9400        32
    46.9600        30
    46.9800        20
    47.0000        36
    47.0200        28
    47.0400        36
    47.0600        18
    47.0800        36
    47.1000        26
    47.1200        18
    47.1400        20
    47.1600        38
    47.1800        40
    47.2000        34
    47.2200        30
    47.2400        28
    47.2600        30
    47.2800        44
    47.3000        32
    47.3200        34
    47.3400        36
    47.3600        34
    47.3800        28
    47.4000        32
    47.4200        28
    47.4400        34
    47.4600        28
    47.4800        28
    47.5000        28
    47.5200        40
    47.5400        30
    47.5600        42
    47.5800        26
    47.6000        32
    47.6200        22
    47.6400        26
    47.6600        28
    47.6800        28
    47.7000        34
    47.7200        26
    47.7400        30
    47.7600        34
    47.7800        26
    47.8000        28
    47.8200        36
    47.8400        28
    47.8600        44
    47.8800        32
    47.9000        32
    47.9200        52
    47.9400        40
    47.9600        38
    47.9800        40
    48.0000        56
    48.0200        68
    48.0400        56
    48.0600        64
    48.0800        68
    48.1000        94
    48.1200        96
    48.1400        72
    48.1600        96
    48.1800        88
    48.2000        72
    48.2200        96
    48.2400        78
    48.2600        64
    48.2800        68
    48.3000        90
    48.3200        88
    48.3400        66
    48.3600        78
    48.3800        68
    48.4000        44
    48.4200        52
    48.4400        46
    48.4600        44
    48.4800        48
    48.5000        42
    48.5200        44
    48.5400        32
    48.5600        40
    48.5800        32
    48.6000        22
    48.6200        34
    48.6400        28
    48.6600        32
    48.6800        34
    48.7000        26
    48.7200        30
    48.7400        32
    48.7600        26
    48.7800        30
    48.8000        32
    48.8200        44
    48.8400        30
    48.8600        40
    48.8800        36
    48.9000        28
    48.9200        30
    48.9400        44
    48.9600        34
    48.9800        38
    49.0000        32
    49.0200        42
    49.0400        40
    49.0600        28
    49.0800        42
    49.1000        28
    49.1200        36
    49.1400        22
    49.1600        18
    49.1800        32
    49.2000        30
    49.2200        26
    49.2400        36
    49.2600        20
    49.2800        24
    49.3000        36
    49.3200        34
    49.3400        24
    49.3600        40
    49.3800        34
    49.4000        30
    49.4200        36
    49.4400        28
    49.4600        32
    49.4800        24
    49.5000        28
    49.5200        30
    49.5400        18
    49.5600        26
    49.5800        30
    49.6000        48
    49.6200        36
    49.6400        34
    49.6600        42
    49.6800        32
    49.7000        56
    49.7200        40
    49.7400        56
    49.7600        46
    49.7800        40
    49.8000        50
    49.8200        52
    49.8400        54
    49.8600        74
    49.8800        52
    49.9000        64
    49.9200        64
    49.9400        62
    49.9600        58
    49.9800        56
    50.0000        62
    50.0200        56
    50.0400        56
    50.0600        40
    50.0800        44
    50.1000        44
    50.1200        40
    50.1400        44
    50.1600        42
    50.1800        36
    50.2000        30
    50.2200        34
    50.2400        36
    50.2600        32
    50.2800        16
    50.3000        32
    50.3200        30
    50.3400        28
    50.3600        30
    50.3800        32
    50.4000        22
    50.4200        30
    50.4400        26
    50.4600        20
    50.4800        24
    50.5000        38
    50.5200        36
    50.5400        20
    50.5600        38
    50.5800        30
    50.6000        26
    50.6200        28
    50.6400        40
    50.6600        30
    50.6800        20
    50.7000        28
    50.7200        24
    50.7400        24
    50.7600        34
    50.7800        28
    50.8000        34
    50.8200        26
    50.8400        30
    50.8600        22
    50.8800        18
    50.9000        28
    50.9200        28
    50.9400        26
    50.9600        34
    50.9800        28
    51.0000        38
    51.0200        28
    51.0400        30
    51.0600        32
    51.0800        38
    51.1000        36
    51.1200        36
    51.1400        34
    51.1600        26
    51.1800        22
    51.2000        36
    51.2200        34
    51.2400        20
    51.2600        34
    51.2800        22
    51.3000        26
    51.3200        26
    51.3400        30
    51.3600        12
    51.3800        26
    51.4000        22
    51.4200        26
    51.4400        34
    51.4600        28
    51.4800        24
    51.5000        28
    51.5200        26
    51.5400        32
    51.5600        26
    51.5800        34
    51.6000        22
    51.6200        30
    51.6400        32
    51.6600        24
    51.6800        40
    51.7000        30
    51.7200        34
    51.7400        36
    51.7600        28
    51.7800        28
    51.8000        22
    51.8200        38
    51.8400        32
    51.8600        24
    51.8800        30
    51.9000        20
    51.9200        34
    51.9400        30
    51.9600        36
    51.9800        36
    52.0000        28
    52.0200        20
    52.0400        32
    52.0600        26
    52.0800        26
    52.1000        36
    52.1200        26
    52.1400        30
    52.1600        30
    52.1800        36
    52.2000        32
    52.2200        22
    52.2400        32
    52.2600        32
    52.2800        24
    52.3000        32
    52.3200        30
    52.3400        26
    52.3600        28
    52.3800        26
    52.4000        36
    52.4200        30
    52.4400        20
    52.4600        34
    52.4800        32
    52.5000        38
    52.5200        38
    52.5400        40
    52.5600        26
    52.5800        34
    52.6000        32
    52.6200        32
    52.6400        26
    52.6600        38
    52.6800        32
    52.7000        32
    52.7200        36
    52.7400        24
    52.7600        24
    52.7800        24
    52.8000        28
    52.8200        34
    52.8400        34
    52.8600        30
    52.8800        40
    52.9000        32
    52.9200        28
    52.9400        30
    52.9600        40
    52.9800        34
    53.0000        32
    53.0200        40
    53.0400        46
    53.0600        44
    53.0800        30
    53.1000        40
    53.1200        42
    53.1400        46
    53.1600        34
    53.1800        34
    53.2000        46
    53.2200        46
    53.2400        40
    53.2600        50
    53.2800        32
    53.3000        44
    53.3200        54
    53.3400        38
    53.3600        54
    53.3800        44
    53.4000        32
    53.4200        42
    53.4400        54
    53.4600        34
    53.4800        22
    53.5000        32
    53.5200        16
    53.5400        50
    53.5600        34
    53.5800        34
    53.6000        38
    53.6200        32
    53.6400        28
    53.6600        44
    53.6800        28
    53.7000        40
    53.7200        30
    53.7400        28
    53.7600        42
    53.7800        32
    53.8000        36
    53.8200        32
    53.8400        30
    53.8600        24
    53.8800        28
    53.9000        28
    53.9200        30
    53.9400        36
    53.9600        22
    53.9800        28
    54.0000        22
    54.0200        22
    54.0400        34
    54.0600        24
    54.0800        22
    54.1000        26
    54.1200        30
    54.1400        30
    54.1600        40
    54.1800        26
    54.2000        20
    54.2200        30
    54.2400        28
    54.2600        22
    54.2800        24
    54.3000        24
    54.3200        22
    54.3400        16
    54.3600        26
    54.3800        34
    54.4000        24
    54.4200        32
    54.4400        30
    54.4600        28
    54.4800        24
    54.5000        40
    54.5200        38
    54.5400        18
    54.5600        28
    54.5800        32
    54.6000        32
    54.6200        28
    54.6400        24
    54.6600        30
    54.6800        28
    54.7000        32
    54.7200        28
    54.7400        24
    54.7600        34
    54.7800        24
    54.8000        48
    54.8200        40
    54.8400        40
    54.8600        44
    54.8800        44
    54.9000        50
    54.9200        48
    54.9400        40
    54.9600        34
    54.9800        60
    55.0000        46
    55.0200        62
    55.0400        50
    55.0600        62
    55.0800        56
    55.1000        58
    55.1200        52
    55.1400        70
    55.1600        68
    55.1800        68
    55.2000        84
    55.2200        70
    55.2400        78
    55.2600        72
    55.2800        72
    55.3000        52
    55.3200        54
    55.3400        50
    55.3600        44
    55.3800        42
    55.4000        50
    55.4200        36
    55.4400        42
    55.4600        36
    55.4800        56
    55.5000        52
    55.5200        34
    55.5400        36
    55.5600        36
    55.5800        34
    55.6000        52
    55.6200        34
    55.6400        32
    55.6600        32
    55.6800        30
    55.7000        28
    55.7200        26
    55.7400        36
    55.7600        26
    55.7800        32
    55.8000        26
    55.8200        38
    55.8400        34
    55.8600        18
    55.8800        26
    55.9000        26
    55.9200        28
    55.9400        36
    55.9600        28
    55.9800        26
    56.0000        38
    56.0200        28
    56.0400        34
    56.0600        24
    56.0800        24
    56.1000        32
    56.1200        30
    56.1400        36
    56.1600        34
    56.1800        32
    56.2000        28
    56.2200        32
    56.2400        36
    56.2600        20
    56.2800        30
    56.3000        40
    56.3200        30
    56.3400        36
    56.3600        24
    56.3800        26
    56.4000        28
    56.4200        26
    56.4400        26
    56.4600        28
    56.4800        30
    56.5000        22
    56.5200        30
    56.5400        22
    56.5600        34
    56.5800        24
    56.6000        32
    56.6200        26
    56.6400        32
    56.6600        30
    56.6800        32
    56.7000        32
    56.7200        22
    56.7400        36
    56.7600        38
    56.7800        30
    56.8000        36
    56.8200        30
    56.8400        36
    56.8600        42
    56.8800        38
    56.9000        34
    56.9200        24
    56.9400        34
    56.9600        34
    56.9800        36
    57.0000        30
    57.0200        30
    57.0400        34
    57.0600        38
    57.0800        22
    57.1000        30
    57.1200        24
    57.1400        20
    57.1600        36
    57.1800        34
    57.2000        24
    57.2200        28
    57.2400        36
    57.2600        28
    57.2800        28
    57.3000        24
    57.3200        32
    57.3400        32
    57.3600        30
    57.3800        24
    57.4000        32
    57.4200        32
    57.4400        30
    57.4600        20
    57.4800        22
    57.5000        30
    57.5200        36
    57.5400        32
    57.5600        24
    57.5800        32
    57.6000        38
    57.6200        32
    57.6400        30
    57.6600        38
    57.6800        32
    57.7000        28
    57.7200        28
    57.7400        24
    57.7600        32
    57.7800        20
    57.8000        32
    57.8200        22
    57.8400        32
    57.8600        24
    57.8800        34
    57.9000        38
    57.9200        36
    57.9400        34
    57.9600        20
    57.9800        32
    58.0000        34
    58.0200        34
    58.0400        38
    58.0600        26
    58.0800        36
    58.1000        30
    58.1200        30
    58.1400        30
    58.1600        34
    58.1800        28
    58.2000        42
    58.2200        32
    58.2400        42
    58.2600        28
    58.2800        32
    58.3000        38
    58.3200        38
    58.3400        30
    58.3600        42
    58.3800        28
    58.4000        20
    58.4200        42
    58.4400        38
    58.4600        48
    58.4800        40
    58.5000        62
    58.5200        76
    58.5400        76
    58.5600        94
    58.5800        96
    58.6000        90
    58.6200        88
    58.6400       110
    58.6600       122
    58.6800       106
    58.7000       142
    58.7200       134
    58.7400       152
    58.7600       162
    58.7800       156
    58.8000       186
    58.8200       188
    58.8400       164
    58.8600       178
    58.8800       164
    58.9000       162
    58.9200       170
    58.9400       172
    58.9600       158
    58.9800       146
    59.0000       122
    59.0200       160
    59.0400       130
    59.0600       118
    59.0800       124
    59.1000       122
    59.1200        90
    59.1400        90
    59.1600        98
    59.1800        78
    59.2000        90
    59.2200        74
    59.2400        60
    59.2600        56
    59.2800        62
    59.3000        66
    59.3200        48
    59.3400        40
    59.3600        40
    59.3800        44
    59.4000        48
    59.4200        36
    59.4400        34
    59.4600        50
    59.4800        38
    59.5000        42
    59.5200        56
    59.5400        50
    59.5600        52
    59.5800        52
    59.6000        60
    59.6200        80
    59.6400        72
    59.6600        72
    59.6800        72
    59.7000        82
    59.7200        70
    59.7400        58
    59.7600        78
    59.7800        82
    59.8000        80
    59.8200        66
    59.8400        70
    59.8600        58
    59.8800        60
    59.9000        48
    59.9200        54
    59.9400        50
    59.9600        60
    59.9800        44
    60.0000        40
    60.0200        38
    60.0400        42
    60.0600        36
    60.0800        30
    60.1000        40
    60.1200        38
    60.1400        26
    60.1600        42
    60.1800        36
    60.2000        30
    60.2200        38
    60.2400        34
    60.2600        30
    60.2800        42
    60.3000        24
    60.3200        38
    60.3400        30
    60.3600        30
    60.3800        28
    60.4000        30
    60.4200        36
    60.4400        36
    60.4600        30
    60.4800        38
    60.5000        24
    60.5200        26
    60.5400        36
    60.5600        28
    60.5800        28
    60.6000        30
    60.6200        44
    60.6400        40
    60.6600        32
    60.6800        28
    60.7000        32
    60.7200        40
    60.7400        36
    60.7600        42
    60.7800        38
    60.8000        32
    60.8200        34
    60.8400        44
    60.8600        34
    60.8800        40
    60.9000        38
    60.9200        42
    60.9400        54
    60.9600        40
    60.9800        38
    61.0000        46
    61.0200        38
    61.0400        44
    61.0600        30
    61.0800        52
    61.1000        44
    61.1200        36
    61.1400        46
    61.1600        38
    61.1800        48
    61.2000        42
    61.2200        36
    61.2400        60
    61.2600        42
    61.2800        48
    61.3000        46
    61.3200        48
    61.3400        46
    61.3600        42
    61.3800        40
    61.4000        50
    61.4200        40
    61.4400        36
    61.4600        26
    61.4800        30
    61.5000        36
    61.5200        44
    61.5400        30
    61.5600        30
    61.5800        26
    61.6000        36
    61.6200        36
    61.6400        28
    61.6600        32
    61.6800        26
    61.7000        28
    61.7200        36
    61.7400        36
    61.7600        20
    61.7800        20
    61.8000        26
    61.8200        24
    61.8400        26
    61.8600        38
    61.8800        40
    61.9000        26
    61.9200        52
    61.9400        24
    61.9600        16
    61.9800        38
    62.0000        26
    62.0200        24
    62.0400        16
    62.0600        36
    62.0800        24
    62.1000        32
    62.1200        34
    62.1400        28
    62.1600        26
    62.1800        26
    62.2000        28
    62.2200        26
    62.2400        24
    62.2600        28
    62.2800        24
    62.3000        30
    62.3200        28
    62.3400        24
    62.3600        26
    62.3800        32
    62.4000        26
    62.4200        14
    62.4400        38
    62.4600        26
    62.4800        34
    62.5000        34
    62.5200        24
    62.5400        32
    62.5600        28
    62.5800        26
    62.6000        16
    62.6200        32
    62.6400        34
    62.6600        24
    62.6800        24
    62.7000        34
    62.7200        18
    62.7400        36
    62.7600        28
    62.7800        36
    62.8000        30
    62.8200        26
    62.8400        22
    62.8600        28
    62.8800        36
    62.9000        20
    62.9200        22
    62.9400        20
    62.9600        28
    62.9800        30
    63.0000        30
    63.0200        20
    63.0400        26
    63.0600        24
    63.0800        26
    63.1000        30
    63.1200        34
    63.1400        34
    63.1600        28
    63.1800        32
    63.2000        32
    63.2200        34
    63.2400        40
    63.2600        34
    63.2800        34
    63.3000        40
    63.3200        30
    63.3400        36
    63.3600        20
    63.3800        26
    63.4000        28
    63.4200        32
    63.4400        32
    63.4600        30
    63.4800        30
    63.5000        30
    63.5200        26
    63.5400        30
    63.5600        42
    63.5800        22
    63.6000        22
    63.6200        26
    63.6400        36
    63.6600        26
    63.6800        22
    63.7000        24
    63.7200        28
    63.7400        26
    63.7600        26
    63.7800        36
    63.8000        38
    63.8200        26
    63.8400        32
    63.8600        24
    63.8800        40
    63.9000        24
    63.9200        30
    63.9400        28
    63.9600        32
    63.9800        18
    64.0000        24
    64.0200        30
    64.0400        30
    64.0600        26
    64.0800        34
    64.1000        36
    64.1200        32
    64.1400        24
    64.1600        28
    64.1800        24
    64.2000        32
    64.2200        32
    64.2400        22
    64.2600        20
    64.2800        22
    64.3000        28
    64.3200        28
    64.3400        34
    64.3600        24
    64.3800        36
    64.4000        32
    64.4200        22
    64.4400        28
    64.4600        14
    64.4800        36
    64.5000        32
    64.5200        32
    64.5400        24
    64.5600        20
    64.5800        30
    64.6000        18
    64.6200        30
    64.6400        32
    64.6600        30
    64.6800        30
    64.7000        32
    64.7200        24
    64.7400        20
    64.7600        26
    64.7800        30
    64.8000        46
    64.8200        32
    64.8400        34
    64.8600        24
    64.8800        30
    64.9000        28
    64.9200        26
    64.9400        32
    64.9600        40
    64.9800        30
    65.0000        56
