/////////////////////////////////////////////////////////////////////////////////
/// Profile Data Ascii Dump (XRD)                                             ///
/////////////////////////////////////////////////////////////////////////////////

  Group     : Swayze
  Data      : GDS182
  File Name : GDS182.RAW

# Profile Datafile
          comment             = Penninite 
          date & time         = 08-04-28 07:49:23 

# Measurement Condition
    X-ray tube
          target              = Cu 
          voltage             = 40.0 (kV)
          current             = 30.0 (mA)
    Slits
          divergence slit     = 2.00000 (deg) 
          scatter slit        = 2.00000 (deg) 
          receiving slit      = 0.15000 (mm)  
    Scanning
          drive axis          = Theta-2Theta 
          scan range          =    4.000 -   65.000 
          scan mode           = Continuous Scan 
          scan speed          =   2.0000 (deg/min) 
          sampling pitch      =   0.0200 (deg) 
          preset time         =   0.60 (sec) 

# Data      [ Total No. = 3051 ]
  <2Theta>   <   I   >
     4.0000       192
     4.0200       200
     4.0400       190
     4.0600       214
     4.0800       200
     4.1000       200
     4.1200       198
     4.1400       212
     4.1600       198
     4.1800       208
     4.2000       180
     4.2200       178
     4.2400       192
     4.2600       210
     4.2800       186
     4.3000       220
     4.3200       170
     4.3400       180
     4.3600       200
     4.3800       204
     4.4000       192
     4.4200       200
     4.4400       180
     4.4600       182
     4.4800       202
     4.5000       182
     4.5200       180
     4.5400       168
     4.5600       166
     4.5800       174
     4.6000       170
     4.6200       168
     4.6400       198
     4.6600       182
     4.6800       206
     4.7000       192
     4.7200       186
     4.7400       158
     4.7600       168
     4.7800       200
     4.8000       172
     4.8200       202
     4.8400       168
     4.8600       186
     4.8800       186
     4.9000       168
     4.9200       168
     4.9400       180
     4.9600       158
     4.9800       190
     5.0000       198
     5.0200       190
     5.0400       176
     5.0600       186
     5.0800       184
     5.1000       174
     5.1200       186
     5.1400       170
     5.1600       174
     5.1800       192
     5.2000       182
     5.2200       190
     5.2400       184
     5.2600       194
     5.2800       208
     5.3000       210
     5.3200       188
     5.3400       222
     5.3600       192
     5.3800       200
     5.4000       184
     5.4200       184
     5.4400       208
     5.4600       206
     5.4800       208
     5.5000       218
     5.5200       220
     5.5400       208
     5.5600       204
     5.5800       228
     5.6000       184
     5.6200       226
     5.6400       238
     5.6600       240
     5.6800       264
     5.7000       268
     5.7200       298
     5.7400       258
     5.7600       298
     5.7800       336
     5.8000       316
     5.8200       348
     5.8400       362
     5.8600       390
     5.8800       418
     5.9000       440
     5.9200       458
     5.9400       570
     5.9600       630
     5.9800       636
     6.0000       672
     6.0200       764
     6.0400       990
     6.0600      1126
     6.0800      1308
     6.1000      1654
     6.1200      1836
     6.1400      2090
     6.1600      2170
     6.1800      1870
     6.2000      1376
     6.2200       990
     6.2400       624
     6.2600       478
     6.2800       326
     6.3000       278
     6.3200       270
     6.3400       230
     6.3600       212
     6.3800       186
     6.4000       190
     6.4200       176
     6.4400       186
     6.4600       192
     6.4800       166
     6.5000       162
     6.5200       148
     6.5400       170
     6.5600       160
     6.5800       158
     6.6000       164
     6.6200       148
     6.6400       164
     6.6600       158
     6.6800       124
     6.7000       136
     6.7200       146
     6.7400       148
     6.7600       126
     6.7800       156
     6.8000       130
     6.8200       142
     6.8400       146
     6.8600       136
     6.8800       134
     6.9000       132
     6.9200       148
     6.9400       132
     6.9600       138
     6.9800       124
     7.0000       120
     7.0200       130
     7.0400       126
     7.0600       136
     7.0800       124
     7.1000       104
     7.1200       114
     7.1400       132
     7.1600       106
     7.1800       124
     7.2000       124
     7.2200       100
     7.2400       130
     7.2600       100
     7.2800       126
     7.3000       132
     7.3200       116
     7.3400       116
     7.3600       114
     7.3800       118
     7.4000       128
     7.4200       114
     7.4400       124
     7.4600       132
     7.4800       120
     7.5000       130
     7.5200       128
     7.5400        92
     7.5600       100
     7.5800       100
     7.6000       126
     7.6200       114
     7.6400       118
     7.6600       120
     7.6800       124
     7.7000       116
     7.7200       116
     7.7400       126
     7.7600       134
     7.7800       116
     7.8000       108
     7.8200       128
     7.8400       112
     7.8600       116
     7.8800       114
     7.9000        92
     7.9200       108
     7.9400       114
     7.9600       126
     7.9800       116
     8.0000       122
     8.0200       104
     8.0400       130
     8.0600       128
     8.0800       104
     8.1000       108
     8.1200       114
     8.1400       114
     8.1600       114
     8.1800        94
     8.2000       126
     8.2200       108
     8.2400        98
     8.2600       110
     8.2800       130
     8.3000       120
     8.3200       118
     8.3400       126
     8.3600       122
     8.3800       144
     8.4000       110
     8.4200       132
     8.4400        98
     8.4600       106
     8.4800       136
     8.5000       106
     8.5200       124
     8.5400       116
     8.5600       124
     8.5800       116
     8.6000       128
     8.6200       116
     8.6400       134
     8.6600       126
     8.6800       102
     8.7000        90
     8.7200       122
     8.7400       114
     8.7600       136
     8.7800       112
     8.8000       108
     8.8200       100
     8.8400       118
     8.8600       114
     8.8800       132
     8.9000       128
     8.9200       118
     8.9400        98
     8.9600       128
     8.9800       126
     9.0000       118
     9.0200       112
     9.0400       100
     9.0600       130
     9.0800       116
     9.1000       100
     9.1200       104
     9.1400       126
     9.1600       122
     9.1800       114
     9.2000       122
     9.2200       114
     9.2400       106
     9.2600       122
     9.2800       114
     9.3000       110
     9.3200       132
     9.3400       122
     9.3600       106
     9.3800       120
     9.4000       128
     9.4200       106
     9.4400       118
     9.4600       108
     9.4800       106
     9.5000       126
     9.5200       112
     9.5400       112
     9.5600       110
     9.5800       110
     9.6000       104
     9.6200       116
     9.6400       100
     9.6600        98
     9.6800       108
     9.7000       126
     9.7200        98
     9.7400       106
     9.7600       110
     9.7800       100
     9.8000       100
     9.8200       118
     9.8400       114
     9.8600       114
     9.8800       118
     9.9000       118
     9.9200        96
     9.9400       106
     9.9600        98
     9.9800       132
    10.0000       102
    10.0200        98
    10.0400       128
    10.0600       108
    10.0800       110
    10.1000       108
    10.1200        98
    10.1400       128
    10.1600        84
    10.1800        96
    10.2000        96
    10.2200       114
    10.2400       104
    10.2600        98
    10.2800       120
    10.3000       116
    10.3200       134
    10.3400        96
    10.3600       102
    10.3800       104
    10.4000       118
    10.4200        84
    10.4400       102
    10.4600       114
    10.4800       116
    10.5000       108
    10.5200        96
    10.5400       114
    10.5600       102
    10.5800       112
    10.6000       106
    10.6200       106
    10.6400       114
    10.6600        98
    10.6800       114
    10.7000        94
    10.7200       100
    10.7400       120
    10.7600        96
    10.7800        92
    10.8000       108
    10.8200       106
    10.8400       112
    10.8600       108
    10.8800       112
    10.9000       102
    10.9200       106
    10.9400        96
    10.9600       106
    10.9800       102
    11.0000       140
    11.0200       100
    11.0400       110
    11.0600       116
    11.0800       124
    11.1000       140
    11.1200       126
    11.1400       148
    11.1600       114
    11.1800       110
    11.2000       118
    11.2200       102
    11.2400       114
    11.2600       104
    11.2800       108
    11.3000        92
    11.3200        94
    11.3400        96
    11.3600       120
    11.3800       116
    11.4000       116
    11.4200       128
    11.4400       100
    11.4600       128
    11.4800       134
    11.5000       108
    11.5200       108
    11.5400       130
    11.5600       146
    11.5800       112
    11.6000       138
    11.6200       146
    11.6400       142
    11.6600       136
    11.6800       158
    11.7000       162
    11.7200       180
    11.7400       152
    11.7600       198
    11.7800       200
    11.8000       252
    11.8200       238
    11.8400       272
    11.8600       252
    11.8800       290
    11.9000       342
    11.9200       406
    11.9400       424
    11.9600       480
    11.9800       548
    12.0000       504
    12.0200       614
    12.0400       658
    12.0600       824
    12.0800       832
    12.1000       934
    12.1200      1194
    12.1400      1228
    12.1600      1486
    12.1800      1700
    12.2000      1976
    12.2200      2526
    12.2400      3284
    12.2600      3978
    12.2800      4864
    12.3000      5990
    12.3200      7002
    12.3400      7378
    12.3600      6584
    12.3800      5244
    12.4000      3504
    12.4200      2286
    12.4400      1384
    12.4600       894
    12.4800       606
    12.5000       448
    12.5200       402
    12.5400       340
    12.5600       298
    12.5800       244
    12.6000       254
    12.6200       216
    12.6400       188
    12.6600       164
    12.6800       154
    12.7000       126
    12.7200       130
    12.7400       110
    12.7600       110
    12.7800        92
    12.8000       110
    12.8200       100
    12.8400       114
    12.8600        92
    12.8800       110
    12.9000        76
    12.9200        94
    12.9400        90
    12.9600        82
    12.9800        90
    13.0000        90
    13.0200        96
    13.0400        80
    13.0600        92
    13.0800        72
    13.1000        88
    13.1200        90
    13.1400        78
    13.1600        96
    13.1800        90
    13.2000       112
    13.2200        74
    13.2400        74
    13.2600        84
    13.2800        74
    13.3000        84
    13.3200        82
    13.3400        78
    13.3600        78
    13.3800        66
    13.4000        68
    13.4200        64
    13.4400        64
    13.4600        70
    13.4800        78
    13.5000        58
    13.5200        58
    13.5400        76
    13.5600        86
    13.5800        66
    13.6000        82
    13.6200        68
    13.6400        76
    13.6600        66
    13.6800        80
    13.7000        54
    13.7200        58
    13.7400        58
    13.7600        68
    13.7800        76
    13.8000        68
    13.8200        72
    13.8400        60
    13.8600        62
    13.8800        68
    13.9000        74
    13.9200        86
    13.9400        60
    13.9600        52
    13.9800        58
    14.0000        56
    14.0200        78
    14.0400        68
    14.0600        72
    14.0800        48
    14.1000        78
    14.1200        52
    14.1400        64
    14.1600        60
    14.1800        60
    14.2000        68
    14.2200        62
    14.2400        86
    14.2600        74
    14.2800        72
    14.3000        70
    14.3200        48
    14.3400        76
    14.3600        56
    14.3800        74
    14.4000        66
    14.4200        66
    14.4400        58
    14.4600        66
    14.4800        68
    14.5000        82
    14.5200        48
    14.5400        70
    14.5600        66
    14.5800        80
    14.6000        78
    14.6200        64
    14.6400        76
    14.6600        50
    14.6800        46
    14.7000        80
    14.7200        52
    14.7400        58
    14.7600        86
    14.7800        50
    14.8000        48
    14.8200        66
    14.8400        60
    14.8600        62
    14.8800        76
    14.9000        52
    14.9200        62
    14.9400        70
    14.9600        60
    14.9800        70
    15.0000        48
    15.0200        62
    15.0400        74
    15.0600        60
    15.0800        66
    15.1000        76
    15.1200        62
    15.1400        64
    15.1600        74
    15.1800        70
    15.2000        76
    15.2200        68
    15.2400        62
    15.2600        64
    15.2800        66
    15.3000        62
    15.3200        52
    15.3400        68
    15.3600        58
    15.3800        62
    15.4000        66
    15.4200        66
    15.4400        60
    15.4600        70
    15.4800        56
    15.5000        72
    15.5200        40
    15.5400        54
    15.5600        68
    15.5800        76
    15.6000        70
    15.6200        56
    15.6400        74
    15.6600        62
    15.6800        54
    15.7000        60
    15.7200        60
    15.7400        50
    15.7600        62
    15.7800        64
    15.8000        50
    15.8200        46
    15.8400        62
    15.8600        60
    15.8800        80
    15.9000        48
    15.9200        40
    15.9400        70
    15.9600        56
    15.9800        70
    16.0000        66
    16.0200        68
    16.0400        70
    16.0600        62
    16.0800        68
    16.1000        66
    16.1200        66
    16.1400        64
    16.1600        48
    16.1800        56
    16.2000        76
    16.2200        66
    16.2400        68
    16.2600        66
    16.2800        76
    16.3000        44
    16.3200        78
    16.3400        48
    16.3600        72
    16.3800        70
    16.4000        52
    16.4200        62
    16.4400        50
    16.4600        56
    16.4800        68
    16.5000        66
    16.5200        70
    16.5400        68
    16.5600        62
    16.5800        80
    16.6000        62
    16.6200        74
    16.6400        62
    16.6600        68
    16.6800        84
    16.7000       100
    16.7200        72
    16.7400        94
    16.7600        70
    16.7800       104
    16.8000        68
    16.8200        66
    16.8400        82
    16.8600        70
    16.8800        56
    16.9000        78
    16.9200        78
    16.9400        54
    16.9600        80
    16.9800        82
    17.0000        92
    17.0200        64
    17.0400        84
    17.0600        66
    17.0800        66
    17.1000        66
    17.1200        78
    17.1400        62
    17.1600        70
    17.1800        84
    17.2000        68
    17.2200        68
    17.2400        78
    17.2600        68
    17.2800        96
    17.3000        84
    17.3200        68
    17.3400        60
    17.3600        76
    17.3800        92
    17.4000        82
    17.4200        86
    17.4400        62
    17.4600        72
    17.4800        80
    17.5000        82
    17.5200        88
    17.5400        84
    17.5600        84
    17.5800        78
    17.6000        92
    17.6200        76
    17.6400        80
    17.6600       100
    17.6800       102
    17.7000        98
    17.7200       106
    17.7400       116
    17.7600       116
    17.7800        92
    17.8000       120
    17.8200       118
    17.8400       110
    17.8600       102
    17.8800       116
    17.9000       144
    17.9200       130
    17.9400       142
    17.9600       142
    17.9800       152
    18.0000       166
    18.0200       168
    18.0400       182
    18.0600       196
    18.0800       210
    18.1000       236
    18.1200       256
    18.1400       322
    18.1600       382
    18.1800       418
    18.2000       434
    18.2200       510
    18.2400       528
    18.2600       704
    18.2800       678
    18.3000       832
    18.3200       970
    18.3400      1190
    18.3600      1348
    18.3800      1572
    18.4000      1934
    18.4200      2564
    18.4400      3040
    18.4600      4000
    18.4800      5250
    18.5000      6594
    18.5200      8148
    18.5400      9580
    18.5600     10108
    18.5800      9362
    18.6000      7776
    18.6200      6060
    18.6400      4118
    18.6600      2546
    18.6800      1676
    18.7000      1054
    18.7200       740
    18.7400       576
    18.7600       474
    18.7800       394
    18.8000       378
    18.8200       328
    18.8400       248
    18.8600       230
    18.8800       192
    18.9000       204
    18.9200       176
    18.9400       160
    18.9600       138
    18.9800       132
    19.0000       124
    19.0200       122
    19.0400       120
    19.0600       120
    19.0800       114
    19.1000       106
    19.1200       100
    19.1400       106
    19.1600       120
    19.1800       112
    19.2000       104
    19.2200        84
    19.2400       116
    19.2600       112
    19.2800        84
    19.3000       120
    19.3200        84
    19.3400        94
    19.3600       104
    19.3800        86
    19.4000        74
    19.4200        84
    19.4400        92
    19.4600        90
    19.4800        72
    19.5000        74
    19.5200        90
    19.5400        88
    19.5600        84
    19.5800        82
    19.6000        64
    19.6200        74
    19.6400        70
    19.6600        92
    19.6800        80
    19.7000        70
    19.7200        68
    19.7400        88
    19.7600        76
    19.7800        82
    19.8000        70
    19.8200        68
    19.8400        80
    19.8600        58
    19.8800        68
    19.9000        78
    19.9200        90
    19.9400        86
    19.9600        70
    19.9800        70
    20.0000        74
    20.0200        80
    20.0400        70
    20.0600        56
    20.0800        56
    20.1000        94
    20.1200        72
    20.1400        54
    20.1600        70
    20.1800        68
    20.2000        80
    20.2200        66
    20.2400        66
    20.2600        68
    20.2800        60
    20.3000        70
    20.3200        64
    20.3400        54
    20.3600        68
    20.3800        80
    20.4000        60
    20.4200        70
    20.4400        64
    20.4600        64
    20.4800        54
    20.5000        56
    20.5200        58
    20.5400        58
    20.5600        58
    20.5800        66
    20.6000        54
    20.6200        56
    20.6400        72
    20.6600        64
    20.6800        80
    20.7000        70
    20.7200        66
    20.7400        72
    20.7600        66
    20.7800        60
    20.8000        58
    20.8200        74
    20.8400        44
    20.8600        64
    20.8800        64
    20.9000        62
    20.9200        64
    20.9400        42
    20.9600        76
    20.9800        60
    21.0000        58
    21.0200        62
    21.0400        50
    21.0600      1488
    21.0800        60
    21.1000        68
    21.1200        50
    21.1400       198
    21.1600        66
    21.1800        64
    21.2000        54
    21.2200        50
    21.2400        52
    21.2600        64
    21.2800        52
    21.3000        56
    21.3200        42
    21.3400        58
    21.3600        62
    21.3800        60
    21.4000        70
    21.4200        56
    21.4400        58
    21.4600        60
    21.4800        58
    21.5000        56
    21.5200        52
    21.5400        48
    21.5600        46
    21.5800        64
    21.6000        56
    21.6200        58
    21.6400        68
    21.6600        56
    21.6800        72
    21.7000        60
    21.7200       132
    21.7400       784
    21.7600        64
    21.7800        52
    21.8000        54
    21.8200        60
    21.8400      4608
    21.8600        58
    21.8800        48
    21.9000        40
    21.9200        52
    21.9400        66
    21.9600        50
    21.9800        62
    22.0000        62
    22.0200        56
    22.0400        62
    22.0600        52
    22.0800        68
    22.1000        52
    22.1200        66
    22.1400        60
    22.1600        64
    22.1800        54
    22.2000       490
    22.2200      3450
    22.2400        98
    22.2600        78
    22.2800        80
    22.3000        96
    22.3200        78
    22.3400        74
    22.3600        82
    22.3800        80
    22.4000        94
    22.4200        88
    22.4400        96
    22.4600        80
    22.4800        46
    22.5000        72
    22.5200        60
    22.5400        76
    22.5600        72
    22.5800        62
    22.6000        64
    22.6200        64
    22.6400        60
    22.6600        68
    22.6800        58
    22.7000        72
    22.7200        68
    22.7400        50
    22.7600        54
    22.7800        44
    22.8000        56
    22.8200        66
    22.8400        60
    22.8600        60
    22.8800        78
    22.9000        74
    22.9200        72
    22.9400        68
    22.9600        72
    22.9800        68
    23.0000        66
    23.0200        68
    23.0400        70
    23.0600        70
    23.0800        80
    23.1000        80
    23.1200        76
    23.1400        60
    23.1600        74
    23.1800        74
    23.2000        66
    23.2200        56
    23.2400        78
    23.2600        66
    23.2800        72
    23.3000        52
    23.3200        72
    23.3400        64
    23.3600        58
    23.3800        74
    23.4000        76
    23.4200        66
    23.4400        64
    23.4600        72
    23.4800        68
    23.5000        68
    23.5200        72
    23.5400        90
    23.5600        76
    23.5800        78
    23.6000        76
    23.6200        92
    23.6400        76
    23.6600        86
    23.6800       108
    23.7000        98
    23.7200       116
    23.7400       106
    23.7600       106
    23.7800       112
    23.8000       116
    23.8200       108
    23.8400       112
    23.8600       116
    23.8800       108
    23.9000        90
    23.9200       114
    23.9400       100
    23.9600       108
    23.9800       120
    24.0000       122
    24.0200       122
    24.0400       104
    24.0600       112
    24.0800       108
    24.1000       102
    24.1200       130
    24.1400       118
    24.1600       124
    24.1800       132
    24.2000       148
    24.2200       124
    24.2400       150
    24.2600       142
    24.2800       168
    24.3000       176
    24.3200       166
    24.3400       180
    24.3600       200
    24.3800       200
    24.4000       278
    24.4200       262
    24.4400       340
    24.4600       394
    24.4800       436
    24.5000       482
    24.5200       564
    24.5400       676
    24.5600       736
    24.5800       820
    24.6000       988
    24.6200      1176
    24.6400      1446
    24.6600      1796
    24.6800      2150
    24.7000      2862
    24.7200      3770
    24.7400      4726
    24.7600      6480
    24.7800      8302
    24.8000     10406
    24.8200     12242
    24.8400     12340
    24.8600     11916
    24.8800     10366
    24.9000      8524
    24.9200      6488
    24.9400      4520
    24.9600      2930
    24.9800      1854
    25.0000      1232
    25.0200       896
    25.0400       634
    25.0600       558
    25.0800       434
    25.1000       418
    25.1200       354
    25.1400       310
    25.1600       254
    25.1800       226
    25.2000       186
    25.2200       170
    25.2400       160
    25.2600       146
    25.2800       140
    25.3000       126
    25.3200       118
    25.3400       120
    25.3600       140
    25.3800        94
    25.4000        98
    25.4200       108
    25.4400        88
    25.4600        96
    25.4800       106
    25.5000        84
    25.5200        80
    25.5400        90
    25.5600        66
    25.5800        90
    25.6000        76
    25.6200       100
    25.6400        88
    25.6600        82
    25.6800        78
    25.7000        74
    25.7200        72
    25.7400        70
    25.7600        66
    25.7800        64
    25.8000        62
    25.8200        64
    25.8400        64
    25.8600        64
    25.8800        64
    25.9000        58
    25.9200        56
    25.9400        62
    25.9600        64
    25.9800        54
    26.0000        58
    26.0200        48
    26.0400        62
    26.0600        48
    26.0800        56
    26.1000        52
    26.1200        54
    26.1400        72
    26.1600        54
    26.1800        64
    26.2000        52
    26.2200        56
    26.2400        58
    26.2600        66
    26.2800        50
    26.3000        56
    26.3200        74
    26.3400        62
    26.3600        64
    26.3800        54
    26.4000        48
    26.4200        48
    26.4400        60
    26.4600        64
    26.4800        40
    26.5000        56
    26.5200        58
    26.5400        40
    26.5600        42
    26.5800        42
    26.6000        64
    26.6200        42
    26.6400        48
    26.6600        50
    26.6800        58
    26.7000        52
    26.7200        46
    26.7400        60
    26.7600        52
    26.7800        46
    26.8000        50
    26.8200        46
    26.8400        58
    26.8600        36
    26.8800        50
    26.9000        38
    26.9200        34
    26.9400        52
    26.9600        44
    26.9800        60
    27.0000        42
    27.0200        50
    27.0400        50
    27.0600        44
    27.0800        42
    27.1000        54
    27.1200        48
    27.1400        50
    27.1600        60
    27.1800        38
    27.2000        64
    27.2200        34
    27.2400        46
    27.2600        58
    27.2800        48
    27.3000        50
    27.3200        48
    27.3400        56
    27.3600        56
    27.3800        40
    27.4000        48
    27.4200        32
    27.4400        48
    27.4600        48
    27.4800        42
    27.5000        52
    27.5200        54
    27.5400        58
    27.5600        34
    27.5800        40
    27.6000        46
    27.6200        62
    27.6400        50
    27.6600        38
    27.6800        44
    27.7000        46
    27.7200        44
    27.7400        44
    27.7600        46
    27.7800        36
    27.8000        64
    27.8200        34
    27.8400        46
    27.8600        50
    27.8800        50
    27.9000        54
    27.9200        34
    27.9400        60
    27.9600        48
    27.9800        52
    28.0000        54
    28.0200        72
    28.0400        48
    28.0600        52
    28.0800        44
    28.1000        70
    28.1200        54
    28.1400        62
    28.1600        46
    28.1800        40
    28.2000        52
    28.2200        46
    28.2400        58
    28.2600        44
    28.2800        54
    28.3000        50
    28.3200        36
    28.3400        58
    28.3600        44
    28.3800        52
    28.4000        54
    28.4200        38
    28.4400        40
    28.4600        50
    28.4800        44
    28.5000        42
    28.5200        54
    28.5400        38
    28.5600        44
    28.5800        40
    28.6000        36
    28.6200        34
    28.6400        44
    28.6600        52
    28.6800        46
    28.7000        36
    28.7200        38
    28.7400        42
    28.7600        56
    28.7800        36
    28.8000        48
    28.8200        40
    28.8400        54
    28.8600        46
    28.8800        44
    28.9000        38
    28.9200        52
    28.9400        48
    28.9600        46
    28.9800        42
    29.0000        56
    29.0200        56
    29.0400        62
    29.0600        62
    29.0800        38
    29.1000        46
    29.1200        42
    29.1400        58
    29.1600        40
    29.1800        50
    29.2000        38
    29.2200        40
    29.2400        46
    29.2600        36
    29.2800        52
    29.3000        40
    29.3200        44
    29.3400        48
    29.3600        48
    29.3800        50
    29.4000        44
    29.4200        46
    29.4400        52
    29.4600        40
    29.4800        48
    29.5000        50
    29.5200        54
    29.5400        56
    29.5600        48
    29.5800        48
    29.6000        48
    29.6200        54
    29.6400        44
    29.6600        54
    29.6800        44
    29.7000        58
    29.7200        54
    29.7400        56
    29.7600        72
    29.7800        42
    29.8000        58
    29.8200        62
    29.8400        54
    29.8600        56
    29.8800        58
    29.9000        50
    29.9200        70
    29.9400        68
    29.9600        70
    29.9800        64
    30.0000        48
    30.0200        60
    30.0400        60
    30.0600        64
    30.0800        56
    30.1000        54
    30.1200        52
    30.1400        48
    30.1600        56
    30.1800        60
    30.2000        50
    30.2200        64
    30.2400        54
    30.2600        66
    30.2800        60
    30.3000        58
    30.3200        46
    30.3400        56
    30.3600        58
    30.3800        68
    30.4000        54
    30.4200        64
    30.4400        58
    30.4600        52
    30.4800        58
    30.5000        64
    30.5200        60
    30.5400        66
    30.5600        70
    30.5800        68
    30.6000        86
    30.6200        86
    30.6400        82
    30.6600        72
    30.6800        74
    30.7000        88
    30.7200        86
    30.7400       102
    30.7600       108
    30.7800       108
    30.8000       120
    30.8200       142
    30.8400       170
    30.8600       166
    30.8800       214
    30.9000       236
    30.9200       230
    30.9400       272
    30.9600       314
    30.9800       392
    31.0000       476
    31.0200       592
    31.0400       758
    31.0600       986
    31.0800      1310
    31.1000      1664
    31.1200      2340
    31.1400      3044
    31.1600      3712
    31.1800      4278
    31.2000      4316
    31.2200      4046
    31.2400      3692
    31.2600      3078
    31.2800      2548
    31.3000      1938
    31.3200      1384
    31.3400       994
    31.3600       662
    31.3800       472
    31.4000       322
    31.4200       250
    31.4400       210
    31.4600       174
    31.4800       138
    31.5000       138
    31.5200       148
    31.5400       108
    31.5600       114
    31.5800        88
    31.6000        66
    31.6200        80
    31.6400        70
    31.6600        76
    31.6800        70
    31.7000        68
    31.7200        68
    31.7400        56
    31.7600        56
    31.7800        66
    31.8000        54
    31.8200        56
    31.8400        48
    31.8600        58
    31.8800        58
    31.9000        42
    31.9200        50
    31.9400        54
    31.9600        64
    31.9800        50
    32.0000        48
    32.0200        56
    32.0400        48
    32.0600        42
    32.0800        40
    32.1000        66
    32.1200        46
    32.1400        50
    32.1600        48
    32.1800        50
    32.2000        50
    32.2200        34
    32.2400        30
    32.2600        34
    32.2800        46
    32.3000        42
    32.3200        46
    32.3400        40
    32.3600        38
    32.3800        46
    32.4000        40
    32.4200        32
    32.4400        42
    32.4600        46
    32.4800        40
    32.5000        36
    32.5200        54
    32.5400        52
    32.5600        48
    32.5800        32
    32.6000        38
    32.6200        40
    32.6400        34
    32.6600        46
    32.6800        32
    32.7000        44
    32.7200        44
    32.7400        36
    32.7600        28
    32.7800        32
    32.8000        46
    32.8200        34
    32.8400        44
    32.8600        40
    32.8800        38
    32.9000        38
    32.9200        38
    32.9400        42
    32.9600        34
    32.9800        30
    33.0000        28
    33.0200        36
    33.0400        28
    33.0600        28
    33.0800        30
    33.1000        44
    33.1200        30
    33.1400        38
    33.1600        36
    33.1800        32
    33.2000        36
    33.2200        30
    33.2400        46
    33.2600        32
    33.2800        44
    33.3000        38
    33.3200        44
    33.3400        32
    33.3600        42
    33.3800        36
    33.4000        30
    33.4200        48
    33.4400        42
    33.4600        40
    33.4800        42
    33.5000        42
    33.5200        38
    33.5400        52
    33.5600        44
    33.5800        50
    33.6000        44
    33.6200        54
    33.6400        40
    33.6600        46
    33.6800        44
    33.7000        20
    33.7200        44
    33.7400        48
    33.7600        36
    33.7800        32
    33.8000        40
    33.8200        38
    33.8400        36
    33.8600        50
    33.8800        42
    33.9000        40
    33.9200        28
    33.9400        40
    33.9600        50
    33.9800        42
    34.0000        48
    34.0200        46
    34.0400        38
    34.0600        40
    34.0800        42
    34.1000        54
    34.1200        44
    34.1400        48
    34.1600        52
    34.1800        48
    34.2000        32
    34.2200        52
    34.2400        46
    34.2600        52
    34.2800        42
    34.3000        46
    34.3200        48
    34.3400        50
    34.3600        38
    34.3800        62
    34.4000        46
    34.4200        60
    34.4400        60
    34.4600        64
    34.4800        64
    34.5000        68
    34.5200        74
    34.5400        70
    34.5600        84
    34.5800        88
    34.6000        72
    34.6200        72
    34.6400        88
    34.6600        96
    34.6800        90
    34.7000        76
    34.7200        82
    34.7400        84
    34.7600        80
    34.7800        56
    34.8000        78
    34.8200        48
    34.8400        74
    34.8600        80
    34.8800        60
    34.9000        66
    34.9200        48
    34.9400        50
    34.9600        78
    34.9800        72
    35.0000        64
    35.0200        64
    35.0400        88
    35.0600        88
    35.0800       110
    35.1000        94
    35.1200       116
    35.1400       110
    35.1600       106
    35.1800       146
    35.2000       110
    35.2200       106
    35.2400       120
    35.2600       126
    35.2800       116
    35.3000        86
    35.3200        86
    35.3400        82
    35.3600        82
    35.3800        62
    35.4000        76
    35.4200        64
    35.4400        58
    35.4600        56
    35.4800        56
    35.5000        56
    35.5200        46
    35.5400        48
    35.5600        42
    35.5800        40
    35.6000        58
    35.6200        56
    35.6400        48
    35.6600        48
    35.6800        44
    35.7000        50
    35.7200        46
    35.7400        40
    35.7600        36
    35.7800        50
    35.8000        50
    35.8200        40
    35.8400        54
    35.8600        32
    35.8800        50
    35.9000        38
    35.9200        46
    35.9400        52
    35.9600        54
    35.9800        34
    36.0000        42
    36.0200        48
    36.0400        42
    36.0600        52
    36.0800        48
    36.1000        46
    36.1200        44
    36.1400        36
    36.1600        48
    36.1800        50
    36.2000        52
    36.2200        44
    36.2400        48
    36.2600        46
    36.2800        44
    36.3000        54
    36.3200        46
    36.3400        46
    36.3600        56
    36.3800        48
    36.4000        68
    36.4200        70
    36.4400        66
    36.4600        68
    36.4800        68
    36.5000        64
    36.5200        78
    36.5400        88
    36.5600        78
    36.5800        96
    36.6000        66
    36.6200       100
    36.6400       110
    36.6600       112
    36.6800       112
    36.7000       120
    36.7200        98
    36.7400        94
    36.7600       102
    36.7800        94
    36.8000        78
    36.8200        66
    36.8400        64
    36.8600        72
    36.8800        66
    36.9000        62
    36.9200        60
    36.9400        64
    36.9600        60
    36.9800        52
    37.0000        48
    37.0200        52
    37.0400        52
    37.0600        50
    37.0800        54
    37.1000        54
    37.1200        48
    37.1400        48
    37.1600        56
    37.1800        52
    37.2000        44
    37.2200        46
    37.2400        54
    37.2600        36
    37.2800        40
    37.3000        56
    37.3200        60
    37.3400        54
    37.3600        48
    37.3800        48
    37.4000        62
    37.4200        48
    37.4400        52
    37.4600        74
    37.4800        72
    37.5000        66
    37.5200        96
    37.5400        88
    37.5600       148
    37.5800       152
    37.6000       162
    37.6200       236
    37.6400       216
    37.6600       188
    37.6800       212
    37.7000       210
    37.7200       158
    37.7400       162
    37.7600       126
    37.7800       114
    37.8000        90
    37.8200        72
    37.8400        80
    37.8600        58
    37.8800        58
    37.9000        54
    37.9200        52
    37.9400        62
    37.9600        42
    37.9800        46
    38.0000        48
    38.0200        56
    38.0400        44
    38.0600        52
    38.0800        42
    38.1000        50
    38.1200        48
    38.1400        40
    38.1600        34
    38.1800        36
    38.2000        44
    38.2200        48
    38.2400        36
    38.2600        44
    38.2800        42
    38.3000        34
    38.3200        54
    38.3400        40
    38.3600        36
    38.3800        44
    38.4000        30
    38.4200        42
    38.4400        44
    38.4600        50
    38.4800        40
    38.5000        42
    38.5200        36
    38.5400        42
    38.5600        36
    38.5800        38
    38.6000        30
    38.6200        32
    38.6400        42
    38.6600        32
    38.6800        46
    38.7000        36
    38.7200        42
    38.7400        36
    38.7600        28
    38.7800        40
    38.8000        38
    38.8200        40
    38.8400        48
    38.8600        44
    38.8800        42
    38.9000        28
    38.9200        34
    38.9400        24
    38.9600        32
    38.9800        38
    39.0000        34
    39.0200        42
    39.0400        34
    39.0600        32
    39.0800        40
    39.1000        38
    39.1200        36
    39.1400        56
    39.1600        50
    39.1800        36
    39.2000        42
    39.2200        38
    39.2400        46
    39.2600        34
    39.2800        34
    39.3000        46
    39.3200        48
    39.3400        32
    39.3600        36
    39.3800        44
    39.4000        46
    39.4200        56
    39.4400        36
    39.4600        50
    39.4800        40
    39.5000        52
    39.5200        42
    39.5400        52
    39.5600        40
    39.5800        46
    39.6000        68
    39.6200        66
    39.6400        62
    39.6600        66
    39.6800        78
    39.7000        86
    39.7200        62
    39.7400        80
    39.7600        70
    39.7800        58
    39.8000        68
    39.8200        66
    39.8400        58
    39.8600        58
    39.8800        60
    39.9000        58
    39.9200        40
    39.9400        54
    39.9600        54
    39.9800        52
    40.0000        40
    40.0200        40
    40.0400        46
    40.0600        40
    40.0800        38
    40.1000        38
    40.1200        32
    40.1400        50
    40.1600        38
    40.1800        38
    40.2000        34
    40.2200        44
    40.2400        42
    40.2600        34
    40.2800        26
    40.3000        30
    40.3200        34
    40.3400        40
    40.3600        36
    40.3800        46
    40.4000        30
    40.4200        34
    40.4400        24
    40.4600        28
    40.4800        24
    40.5000        32
    40.5200        32
    40.5400        30
    40.5600        42
    40.5800        28
    40.6000        32
    40.6200        42
    40.6400        32
    40.6600        24
    40.6800        30
    40.7000        26
    40.7200        32
    40.7400        38
    40.7600        34
    40.7800        40
    40.8000        30
    40.8200        40
    40.8400        60
    40.8600        44
    40.8800        44
    40.9000        34
    40.9200        36
    40.9400        42
    40.9600        28
    40.9800        26
    41.0000        26
    41.0200        40
    41.0400        28
    41.0600        24
    41.0800        42
    41.1000        38
    41.1200        36
    41.1400        24
    41.1600        34
    41.1800        38
    41.2000        24
    41.2200        28
    41.2400        30
    41.2600        38
    41.2800        24
    41.3000        42
    41.3200        26
    41.3400        28
    41.3600        28
    41.3800        26
    41.4000        34
    41.4200        26
    41.4400        38
    41.4600        34
    41.4800        28
    41.5000        42
    41.5200        34
    41.5400        26
    41.5600        22
    41.5800        38
    41.6000        36
    41.6200        30
    41.6400        44
    41.6600        26
    41.6800        32
    41.7000        32
    41.7200        28
    41.7400        36
    41.7600        36
    41.7800        26
    41.8000        32
    41.8200        36
    41.8400        34
    41.8600        28
    41.8800        34
    41.9000        36
    41.9200        38
    41.9400        24
    41.9600        30
    41.9800        30
    42.0000        30
    42.0200        36
    42.0400        32
    42.0600        32
    42.0800        30
    42.1000        34
    42.1200        40
    42.1400        38
    42.1600        30
    42.1800        44
    42.2000        46
    42.2200        30
    42.2400        30
    42.2600        30
    42.2800        30
    42.3000        46
    42.3200        28
    42.3400        38
    42.3600        22
    42.3800        30
    42.4000        44
    42.4200        30
    42.4400        30
    42.4600        28
    42.4800        50
    42.5000        50
    42.5200        38
    42.5400        42
    42.5600        48
    42.5800        36
    42.6000        36
    42.6200        36
    42.6400        28
    42.6600        52
    42.6800        42
    42.7000        36
    42.7200        50
    42.7400        44
    42.7600        40
    42.7800        34
    42.8000        22
    42.8200        28
    42.8400        32
    42.8600        24
    42.8800        36
    42.9000        34
    42.9200        44
    42.9400        32
    42.9600        38
    42.9800        38
    43.0000        44
    43.0200        38
    43.0400        38
    43.0600        40
    43.0800        38
    43.1000        44
    43.1200        42
    43.1400        34
    43.1600        50
    43.1800        34
    43.2000        40
    43.2200        40
    43.2400        46
    43.2600        46
    43.2800        46
    43.3000        42
    43.3200        38
    43.3400        44
    43.3600        46
    43.3800        44
    43.4000        38
    43.4200        44
    43.4400        42
    43.4600        52
    43.4800        50
    43.5000        48
    43.5200        44
    43.5400        46
    43.5600        52
    43.5800        38
    43.6000        56
    43.6200        48
    43.6400        48
    43.6600        56
    43.6800        48
    43.7000        40
    43.7200        48
    43.7400        24
    43.7600        38
    43.7800        50
    43.8000        72
    43.8200        52
    43.8400        54
    43.8600        46
    43.8800        62
    43.9000        70
    43.9200        88
    43.9400        68
    43.9600        80
    43.9800       110
    44.0000       118
    44.0200       100
    44.0400       142
    44.0600       136
    44.0800       216
    44.1000       226
    44.1200       348
    44.1400       458
    44.1600       596
    44.1800       858
    44.2000      1022
    44.2200      1070
    44.2400      1096
    44.2600      1148
    44.2800      1018
    44.3000       898
    44.3200       850
    44.3400       752
    44.3600       688
    44.3800       564
    44.4000       388
    44.4200       336
    44.4400       240
    44.4600       188
    44.4800       130
    44.5000       104
    44.5200       118
    44.5400        84
    44.5600       102
    44.5800        86
    44.6000        70
    44.6200        76
    44.6400        70
    44.6600        74
    44.6800        60
    44.7000        74
    44.7200        92
    44.7400        72
    44.7600        84
    44.7800        90
    44.8000        70
    44.8200       104
    44.8400        82
    44.8600       106
    44.8800       106
    44.9000       104
    44.9200       104
    44.9400       122
    44.9600       130
    44.9800       136
    45.0000       134
    45.0200       126
    45.0400       120
    45.0600       134
    45.0800       128
    45.1000       118
    45.1200       100
    45.1400        98
    45.1600        78
    45.1800        80
    45.2000        88
    45.2200        80
    45.2400        66
    45.2600        78
    45.2800        68
    45.3000        82
    45.3200        70
    45.3400        54
    45.3600        64
    45.3800        56
    45.4000        56
    45.4200        42
    45.4400        54
    45.4600        38
    45.4800        48
    45.5000        54
    45.5200        48
    45.5400        48
    45.5600        38
    45.5800        56
    45.6000        40
    45.6200        36
    45.6400        46
    45.6600        32
    45.6800        48
    45.7000        32
    45.7200        36
    45.7400        40
    45.7600        48
    45.7800        36
    45.8000        26
    45.8200        40
    45.8400        38
    45.8600        36
    45.8800        42
    45.9000        36
    45.9200        34
    45.9400        26
    45.9600        32
    45.9800        28
    46.0000        44
    46.0200        42
    46.0400        30
    46.0600        42
    46.0800        40
    46.1000        34
    46.1200        40
    46.1400        34
    46.1600        26
    46.1800        34
    46.2000        38
    46.2200        26
    46.2400        26
    46.2600        30
    46.2800        54
    46.3000        42
    46.3200        40
    46.3400        24
    46.3600        22
    46.3800        36
    46.4000        24
    46.4200        30
    46.4400        20
    46.4600        28
    46.4800        22
    46.5000        32
    46.5200        36
    46.5400        24
    46.5600        28
    46.5800        38
    46.6000        38
    46.6200        26
    46.6400        32
    46.6600        38
    46.6800        32
    46.7000        24
    46.7200        32
    46.7400        28
    46.7600        34
    46.7800        34
    46.8000        36
    46.8200        42
    46.8400        24
    46.8600        38
    46.8800        32
    46.9000        34
    46.9200        32
    46.9400        32
    46.9600        22
    46.9800        32
    47.0000        34
    47.0200        26
    47.0400        28
    47.0600        32
    47.0800        34
    47.1000        28
    47.1200        36
    47.1400        34
    47.1600        38
    47.1800        30
    47.2000        38
    47.2200        34
    47.2400        38
    47.2600        26
    47.2800        34
    47.3000        30
    47.3200        42
    47.3400        34
    47.3600        24
    47.3800        28
    47.4000        30
    47.4200        26
    47.4400        38
    47.4600        34
    47.4800        38
    47.5000        32
    47.5200        32
    47.5400        38
    47.5600        34
    47.5800        30
    47.6000        50
    47.6200        28
    47.6400        40
    47.6600        42
    47.6800        42
    47.7000        36
    47.7200        40
    47.7400        36
    47.7600        50
    47.7800        40
    47.8000        22
    47.8200        34
    47.8400        36
    47.8600        44
    47.8800        64
    47.9000        46
    47.9200        38
    47.9400        56
    47.9600        56
    47.9800        52
    48.0000        60
    48.0200        60
    48.0400        66
    48.0600        64
    48.0800        52
    48.1000        52
    48.1200        64
    48.1400        74
    48.1600        52
    48.1800        46
    48.2000        42
    48.2200        34
    48.2400        48
    48.2600        48
    48.2800        48
    48.3000        46
    48.3200        42
    48.3400        42
    48.3600        38
    48.3800        34
    48.4000        38
    48.4200        40
    48.4400        32
    48.4600        34
    48.4800        32
    48.5000        34
    48.5200        36
    48.5400        24
    48.5600        46
    48.5800        36
    48.6000        38
    48.6200        32
    48.6400        32
    48.6600        36
    48.6800        46
    48.7000        38
    48.7200        32
    48.7400        26
    48.7600        20
    48.7800        30
    48.8000        40
    48.8200        38
    48.8400        32
    48.8600        40
    48.8800        42
    48.9000        26
    48.9200        26
    48.9400        34
    48.9600        30
    48.9800        38
    49.0000        34
    49.0200        34
    49.0400        32
    49.0600        38
    49.0800        38
    49.1000        36
    49.1200        34
    49.1400        24
    49.1600        34
    49.1800        34
    49.2000        32
    49.2200        36
    49.2400        42
    49.2600        22
    49.2800        34
    49.3000        34
    49.3200        44
    49.3400        34
    49.3600        34
    49.3800        46
    49.4000        42
    49.4200        38
    49.4400        36
    49.4600        48
    49.4800        56
    49.5000        52
    49.5200        36
    49.5400        52
    49.5600        44
    49.5800        64
    49.6000        50
    49.6200        50
    49.6400        68
    49.6600        64
    49.6800        52
    49.7000        56
    49.7200        60
    49.7400        62
    49.7600        58
    49.7800        52
    49.8000        66
    49.8200        50
    49.8400        54
    49.8600        46
    49.8800        40
    49.9000        46
    49.9200        52
    49.9400        46
    49.9600        44
    49.9800        42
    50.0000        42
    50.0200        46
    50.0400        26
    50.0600        34
    50.0800        36
    50.1000        30
    50.1200        36
    50.1400        28
    50.1600        32
    50.1800        48
    50.2000        34
    50.2200        40
    50.2400        42
    50.2600        34
    50.2800        30
    50.3000        34
    50.3200        30
    50.3400        36
    50.3600        30
    50.3800        32
    50.4000        36
    50.4200        38
    50.4400        36
    50.4600        36
    50.4800        32
    50.5000        32
    50.5200        28
    50.5400        26
    50.5600        28
    50.5800        20
    50.6000        20
    50.6200        28
    50.6400        38
    50.6600        38
    50.6800        32
    50.7000        28
    50.7200        52
    50.7400        38
    50.7600        40
    50.7800        28
    50.8000        40
    50.8200        44
    50.8400        46
    50.8600        44
    50.8800        54
    50.9000        68
    50.9200        84
    50.9400        86
    50.9600        96
    50.9800       112
    51.0000       108
    51.0200       100
    51.0400        96
    51.0600        74
    51.0800        90
    51.1000       100
    51.1200        66
    51.1400        66
    51.1600        72
    51.1800        54
    51.2000        56
    51.2200        36
    51.2400        38
    51.2600        48
    51.2800        30
    51.3000        28
    51.3200        28
    51.3400        38
    51.3600        32
    51.3800        32
    51.4000        26
    51.4200        28
    51.4400        28
    51.4600        32
    51.4800        34
    51.5000        48
    51.5200        32
    51.5400        26
    51.5600        28
    51.5800        42
    51.6000        22
    51.6200        20
    51.6400        32
    51.6600        34
    51.6800        40
    51.7000        28
    51.7200        32
    51.7400        26
    51.7600        14
    51.7800        22
    51.8000        36
    51.8200        30
    51.8400        30
    51.8600        30
    51.8800        32
    51.9000        36
    51.9200        34
    51.9400        28
    51.9600        38
    51.9800        36
    52.0000        32
    52.0200        26
    52.0400        18
    52.0600        44
    52.0800        28
    52.1000        36
    52.1200        30
    52.1400        28
    52.1600        32
    52.1800        36
    52.2000        28
    52.2200        32
    52.2400        32
    52.2600        26
    52.2800        32
    52.3000        32
    52.3200        26
    52.3400        44
    52.3600        50
    52.3800        28
    52.4000        30
    52.4200        32
    52.4400        40
    52.4600        38
    52.4800        32
    52.5000        26
    52.5200        42
    52.5400        40
    52.5600        36
    52.5800        26
    52.6000        42
    52.6200        48
    52.6400        42
    52.6600        28
    52.6800        36
    52.7000        38
    52.7200        34
    52.7400        40
    52.7600        34
    52.7800        28
    52.8000        44
    52.8200        36
    52.8400        34
    52.8600        52
    52.8800        34
    52.9000        36
    52.9200        36
    52.9400        40
    52.9600        20
    52.9800        42
    53.0000        42
    53.0200        50
    53.0400        40
    53.0600        48
    53.0800        38
    53.1000        58
    53.1200        38
    53.1400        40
    53.1600        50
    53.1800        36
    53.2000        38
    53.2200        34
    53.2400        40
    53.2600        36
    53.2800        30
    53.3000        28
    53.3200        34
    53.3400        32
    53.3600        40
    53.3800        32
    53.4000        38
    53.4200        30
    53.4400        32
    53.4600        36
    53.4800        40
    53.5000        38
    53.5200        30
    53.5400        42
    53.5600        30
    53.5800        38
    53.6000        36
    53.6200        20
    53.6400        34
    53.6600        32
    53.6800        32
    53.7000        34
    53.7200        36
    53.7400        42
    53.7600        30
    53.7800        30
    53.8000        34
    53.8200        48
    53.8400        34
    53.8600        34
    53.8800        40
    53.9000        38
    53.9200        40
    53.9400        30
    53.9600        14
    53.9800        34
    54.0000        28
    54.0200        26
    54.0400        40
    54.0600        30
    54.0800        28
    54.1000        20
    54.1200        38
    54.1400        32
    54.1600        46
    54.1800        28
    54.2000        22
    54.2200        40
    54.2400        40
    54.2600        36
    54.2800        30
    54.3000        36
    54.3200        30
    54.3400        32
    54.3600        36
    54.3800        32
    54.4000        36
    54.4200        38
    54.4400        44
    54.4600        34
    54.4800        32
    54.5000        28
    54.5200        30
    54.5400        34
    54.5600        38
    54.5800        42
    54.6000        36
    54.6200        36
    54.6400        46
    54.6600        42
    54.6800        52
    54.7000        42
    54.7200        46
    54.7400        44
    54.7600        46
    54.7800        50
    54.8000        60
    54.8200        48
    54.8400        42
    54.8600        54
    54.8800        46
    54.9000        50
    54.9200        58
    54.9400        46
    54.9600        52
    54.9800        40
    55.0000        62
    55.0200        34
    55.0400        42
    55.0600        40
    55.0800        40
    55.1000        36
    55.1200        38
    55.1400        42
    55.1600        36
    55.1800        36
    55.2000        42
    55.2200        28
    55.2400        38
    55.2600        32
    55.2800        38
    55.3000        40
    55.3200        32
    55.3400        38
    55.3600        40
    55.3800        48
    55.4000        28
    55.4200        30
    55.4400        34
    55.4600        58
    55.4800        32
    55.5000        30
    55.5200        38
    55.5400        38
    55.5600        38
    55.5800        32
    55.6000        26
    55.6200        34
    55.6400        44
    55.6600        28
    55.6800        36
    55.7000        40
    55.7200        26
    55.7400        42
    55.7600        30
    55.7800        38
    55.8000        34
    55.8200        28
    55.8400        36
    55.8600        36
    55.8800        34
    55.9000        24
    55.9200        34
    55.9400        32
    55.9600        36
    55.9800        34
    56.0000        28
    56.0200        36
    56.0400        36
    56.0600        28
    56.0800        28
    56.1000        30
    56.1200        36
    56.1400        40
    56.1600        36
    56.1800        24
    56.2000        32
    56.2200        28
    56.2400        32
    56.2600        34
    56.2800        32
    56.3000        28
    56.3200        30
    56.3400        32
    56.3600        38
    56.3800        40
    56.4000        38
    56.4200        30
    56.4400        36
    56.4600        32
    56.4800        24
    56.5000        36
    56.5200        36
    56.5400        40
    56.5600        26
    56.5800        28
    56.6000        40
    56.6200        26
    56.6400        24
    56.6600        28
    56.6800        40
    56.7000        32
    56.7200        30
    56.7400        36
    56.7600        20
    56.7800        30
    56.8000        36
    56.8200        42
    56.8400        32
    56.8600        24
    56.8800        34
    56.9000        32
    56.9200        34
    56.9400        40
    56.9600        44
    56.9800        32
    57.0000        36
    57.0200        32
    57.0400        34
    57.0600        42
    57.0800        40
    57.1000        34
    57.1200        36
    57.1400        32
    57.1600        30
    57.1800        32
    57.2000        26
    57.2200        34
    57.2400        38
    57.2600        40
    57.2800        42
    57.3000        38
    57.3200        42
    57.3400        32
    57.3600        38
    57.3800        38
    57.4000        36
    57.4200        26
    57.4400        40
    57.4600        38
    57.4800        34
    57.5000        30
    57.5200        36
    57.5400        28
    57.5600        32
    57.5800        38
    57.6000        50
    57.6200        36
    57.6400        40
    57.6600        44
    57.6800        46
    57.7000        52
    57.7200        54
    57.7400        60
    57.7600        54
    57.7800        58
    57.8000        70
    57.8200        96
    57.8400       120
    57.8600       136
    57.8800       140
    57.9000       168
    57.9200       182
    57.9400       174
    57.9600       150
    57.9800       158
    58.0000       168
    58.0200       124
    58.0400       132
    58.0600       140
    58.0800       124
    58.1000       120
    58.1200       110
    58.1400       120
    58.1600        94
    58.1800        80
    58.2000        80
    58.2200        90
    58.2400        62
    58.2600        94
    58.2800        94
    58.3000        74
    58.3200        78
    58.3400        72
    58.3600        70
    58.3800        74
    58.4000       100
    58.4200        94
    58.4400       100
    58.4600       128
    58.4800       108
    58.5000       122
    58.5200       128
    58.5400       106
    58.5600       108
    58.5800       136
    58.6000       122
    58.6200       110
    58.6400       114
    58.6600       114
    58.6800       108
    58.7000        78
    58.7200        80
    58.7400       104
    58.7600        86
    58.7800        94
    58.8000        74
    58.8200        68
    58.8400        64
    58.8600        74
    58.8800        62
    58.9000        70
    58.9200        56
    58.9400        50
    58.9600        46
    58.9800        60
    59.0000        44
    59.0200        52
    59.0400        42
    59.0600        52
    59.0800        42
    59.1000        50
    59.1200        40
    59.1400        50
    59.1600        60
    59.1800        34
    59.2000        40
    59.2200        54
    59.2400        30
    59.2600        36
    59.2800        46
    59.3000        34
    59.3200        40
    59.3400        34
    59.3600        20
    59.3800        40
    59.4000        44
    59.4200        48
    59.4400        36
    59.4600        32
    59.4800        44
    59.5000        38
    59.5200        44
    59.5400        44
    59.5600        40
    59.5800        32
    59.6000        40
    59.6200        30
    59.6400        44
    59.6600        50
    59.6800        50
    59.7000        36
    59.7200        38
    59.7400        42
    59.7600        40
    59.7800        36
    59.8000        38
    59.8200        58
    59.8400        52
    59.8600        48
    59.8800        58
    59.9000        62
    59.9200        52
    59.9400        56
    59.9600        60
    59.9800        66
    60.0000        68
    60.0200        66
    60.0400        72
    60.0600        58
    60.0800        62
    60.1000        78
    60.1200        60
    60.1400        78
    60.1600        86
    60.1800        68
    60.2000        58
    60.2200        54
    60.2400        62
    60.2600        58
    60.2800        58
    60.3000        52
    60.3200        54
    60.3400        48
    60.3600        42
    60.3800        44
    60.4000        42
    60.4200        48
    60.4400        48
    60.4600        44
    60.4800        40
    60.5000        50
    60.5200        42
    60.5400        60
    60.5600        42
    60.5800        46
    60.6000        42
    60.6200        34
    60.6400        24
    60.6600        38
    60.6800        40
    60.7000        42
    60.7200        46
    60.7400        28
    60.7600        26
    60.7800        30
    60.8000        28
    60.8200        26
    60.8400        40
    60.8600        36
    60.8800        30
    60.9000        34
    60.9200        34
    60.9400        32
    60.9600        46
    60.9800        44
    61.0000        36
    61.0200        44
    61.0400        30
    61.0600        32
    61.0800        36
    61.1000        38
    61.1200        40
    61.1400        34
    61.1600        34
    61.1800        42
    61.2000        38
    61.2200        32
    61.2400        36
    61.2600        28
    61.2800        30
    61.3000        32
    61.3200        38
    61.3400        36
    61.3600        36
    61.3800        36
    61.4000        28
    61.4200        38
    61.4400        38
    61.4600        36
    61.4800        36
    61.5000        54
    61.5200        48
    61.5400        46
    61.5600        46
    61.5800        54
    61.6000        46
    61.6200        40
    61.6400        40
    61.6600        48
    61.6800        36
    61.7000        36
    61.7200        32
    61.7400        44
    61.7600        30
    61.7800        46
    61.8000        32
    61.8200        42
    61.8400        46
    61.8600        42
    61.8800        32
    61.9000        34
    61.9200        36
    61.9400        34
    61.9600        32
    61.9800        46
    62.0000        24
    62.0200        34
    62.0400        38
    62.0600        34
    62.0800        20
    62.1000        34
    62.1200        30
    62.1400        32
    62.1600        32
    62.1800        32
    62.2000        26
    62.2200        32
    62.2400        20
    62.2600        30
    62.2800        32
    62.3000        38
    62.3200        40
    62.3400        36
    62.3600        38
    62.3800        32
    62.4000        30
    62.4200        38
    62.4400        36
    62.4600        36
    62.4800        40
    62.5000        32
    62.5200        30
    62.5400        36
    62.5600        26
    62.5800        40
    62.6000        36
    62.6200        36
    62.6400        32
    62.6600        32
    62.6800        24
    62.7000        40
    62.7200        28
    62.7400        50
    62.7600        24
    62.7800        30
    62.8000        28
    62.8200        20
    62.8400        24
    62.8600        40
    62.8800        38
    62.9000        32
    62.9200        28
    62.9400        32
    62.9600        32
    62.9800        20
    63.0000        38
    63.0200        46
    63.0400        28
    63.0600        36
    63.0800        32
    63.1000        44
    63.1200        34
    63.1400        32
    63.1600        36
    63.1800        22
    63.2000        36
    63.2200        32
    63.2400        28
    63.2600        24
    63.2800        36
    63.3000        28
    63.3200        34
    63.3400        28
    63.3600        38
    63.3800        42
    63.4000        32
    63.4200        30
    63.4400        42
    63.4600        20
    63.4800        44
    63.5000        40
    63.5200        30
    63.5400        40
    63.5600        38
    63.5800        36
    63.6000        38
    63.6200        28
    63.6400        26
    63.6600        42
    63.6800        38
    63.7000        38
    63.7200        40
    63.7400        30
    63.7600        36
    63.7800        28
    63.8000        30
    63.8200        36
    63.8400        30
    63.8600        34
    63.8800        36
    63.9000        40
    63.9200        32
    63.9400        40
    63.9600        40
    63.9800        40
    64.0000        36
    64.0200        28
    64.0400        44
    64.0600        32
    64.0800        38
    64.1000        36
    64.1200        32
    64.1400        40
    64.1600        36
    64.1800        40
    64.2000        32
    64.2200        44
    64.2400        32
    64.2600        36
    64.2800        38
    64.3000        38
    64.3200        30
    64.3400        40
    64.3600        42
    64.3800        36
    64.4000        40
    64.4200        42
    64.4400        44
    64.4600        28
    64.4800        38
    64.5000        36
    64.5200        40
    64.5400        34
    64.5600        36
    64.5800        42
    64.6000        48
    64.6200        40
    64.6400        40
    64.6600        48
    64.6800        50
    64.7000        52
    64.7200        36
    64.7400        36
    64.7600        60
    64.7800        56
    64.8000        54
    64.8200        66
    64.8400        66
    64.8600        90
    64.8800        76
    64.9000        86
    64.9200       104
    64.9400       128
    64.9600       166
    64.9800       222
    65.0000       266
