/////////////////////////////////////////////////////////////////////////////////
/// Profile Data Ascii Dump (XRD)                                             ///
/////////////////////////////////////////////////////////////////////////////////

  Group     : Swayze
  Data      : GDS209
  File Name : GDS209.RAW

# Profile Datafile
          comment             = SynAluniteH30-200C 
          date & time         = 08-03-27 07:16:41 

# Measurement Condition
    X-ray tube
          target              = Cu 
          voltage             = 40.0 (kV)
          current             = 30.0 (mA)
    Slits
          divergence slit     = 2.00000 (deg) 
          scatter slit        = 2.00000 (deg) 
          receiving slit      = 0.15000 (mm)  
    Scanning
          drive axis          = Theta-2Theta 
          scan range          =    4.000 -   65.000 
          scan mode           = Continuous Scan 
          scan speed          =   2.0000 (deg/min) 
          sampling pitch      =   0.0200 (deg) 
          preset time         =   0.60 (sec) 

# Data      [ Total No. = 3051 ]
  <2Theta>   <   I   >
     4.0000       198
     4.0200       186
     4.0400       208
     4.0600       202
     4.0800       184
     4.1000       198
     4.1200       158
     4.1400       198
     4.1600       166
     4.1800       208
     4.2000       200
     4.2200       154
     4.2400       192
     4.2600       166
     4.2800       166
     4.3000       166
     4.3200       182
     4.3400       152
     4.3600       164
     4.3800       192
     4.4000       164
     4.4200       188
     4.4400       170
     4.4600       164
     4.4800       140
     4.5000       172
     4.5200       188
     4.5400       154
     4.5600       166
     4.5800       156
     4.6000       150
     4.6200       166
     4.6400       184
     4.6600       152
     4.6800       188
     4.7000       166
     4.7200       154
     4.7400       152
     4.7600       164
     4.7800       142
     4.8000       140
     4.8200       186
     4.8400       170
     4.8600       146
     4.8800       178
     4.9000       144
     4.9200       164
     4.9400       156
     4.9600       138
     4.9800       170
     5.0000       146
     5.0200       174
     5.0400       150
     5.0600       134
     5.0800       180
     5.1000       168
     5.1200       150
     5.1400       126
     5.1600       164
     5.1800       150
     5.2000       154
     5.2200       148
     5.2400       184
     5.2600       142
     5.2800       168
     5.3000       134
     5.3200       144
     5.3400       156
     5.3600       164
     5.3800       150
     5.4000       162
     5.4200       142
     5.4400       166
     5.4600       144
     5.4800       154
     5.5000       144
     5.5200       154
     5.5400       170
     5.5600       146
     5.5800       158
     5.6000       154
     5.6200       154
     5.6400       130
     5.6600       126
     5.6800       168
     5.7000       138
     5.7200       144
     5.7400       152
     5.7600       136
     5.7800       168
     5.8000       142
     5.8200       138
     5.8400       140
     5.8600       168
     5.8800       156
     5.9000       182
     5.9200       160
     5.9400       170
     5.9600       150
     5.9800       152
     6.0000       156
     6.0200       150
     6.0400       164
     6.0600       144
     6.0800       174
     6.1000       150
     6.1200       190
     6.1400       134
     6.1600       128
     6.1800       150
     6.2000       130
     6.2200       150
     6.2400       148
     6.2600       148
     6.2800       140
     6.3000       144
     6.3200       140
     6.3400       146
     6.3600       168
     6.3800       144
     6.4000       146
     6.4200       130
     6.4400       114
     6.4600       136
     6.4800       114
     6.5000       146
     6.5200       140
     6.5400       130
     6.5600       124
     6.5800       116
     6.6000       136
     6.6200       152
     6.6400       118
     6.6600       150
     6.6800       138
     6.7000       128
     6.7200       144
     6.7400       126
     6.7600       142
     6.7800       134
     6.8000       124
     6.8200       138
     6.8400       142
     6.8600       144
     6.8800       116
     6.9000       120
     6.9200       120
     6.9400       118
     6.9600       104
     6.9800       132
     7.0000       122
     7.0200       118
     7.0400       106
     7.0600       120
     7.0800       114
     7.1000       118
     7.1200       120
     7.1400       116
     7.1600       124
     7.1800       112
     7.2000       128
     7.2200       134
     7.2400       112
     7.2600       122
     7.2800       110
     7.3000       114
     7.3200       110
     7.3400       122
     7.3600       120
     7.3800       106
     7.4000       112
     7.4200       122
     7.4400       132
     7.4600       128
     7.4800       138
     7.5000       114
     7.5200       116
     7.5400       110
     7.5600       118
     7.5800       122
     7.6000        86
     7.6200       102
     7.6400       102
     7.6600       136
     7.6800       114
     7.7000       106
     7.7200       104
     7.7400       132
     7.7600       118
     7.7800       110
     7.8000        96
     7.8200       100
     7.8400       134
     7.8600       102
     7.8800       102
     7.9000       110
     7.9200       116
     7.9400       136
     7.9600       122
     7.9800       124
     8.0000       110
     8.0200       116
     8.0400       116
     8.0600       102
     8.0800       110
     8.1000       110
     8.1200       108
     8.1400       106
     8.1600       108
     8.1800       120
     8.2000       110
     8.2200       124
     8.2400        96
     8.2600       110
     8.2800       112
     8.3000       122
     8.3200       106
     8.3400       114
     8.3600       120
     8.3800       118
     8.4000       108
     8.4200       112
     8.4400       112
     8.4600       108
     8.4800       118
     8.5000        96
     8.5200       106
     8.5400       118
     8.5600       108
     8.5800        96
     8.6000       104
     8.6200        98
     8.6400       108
     8.6600       126
     8.6800       108
     8.7000        92
     8.7200       138
     8.7400       122
     8.7600       108
     8.7800       104
     8.8000       118
     8.8200       132
     8.8400       110
     8.8600       106
     8.8800       110
     8.9000       112
     8.9200       108
     8.9400       112
     8.9600       100
     8.9800       118
     9.0000       122
     9.0200       112
     9.0400       122
     9.0600       112
     9.0800       110
     9.1000       120
     9.1200       108
     9.1400       126
     9.1600       124
     9.1800       112
     9.2000       128
     9.2200       100
     9.2400       130
     9.2600       110
     9.2800       102
     9.3000       130
     9.3200       114
     9.3400       108
     9.3600       130
     9.3800       116
     9.4000       104
     9.4200        96
     9.4400       110
     9.4600       120
     9.4800       100
     9.5000       108
     9.5200       116
     9.5400       110
     9.5600       100
     9.5800       104
     9.6000       124
     9.6200       112
     9.6400       108
     9.6600        88
     9.6800       104
     9.7000       116
     9.7200        98
     9.7400        94
     9.7600       104
     9.7800       130
     9.8000       124
     9.8200       138
     9.8400       104
     9.8600       116
     9.8800       128
     9.9000       114
     9.9200       114
     9.9400       132
     9.9600       122
     9.9800        98
    10.0000       110
    10.0200       106
    10.0400       112
    10.0600       112
    10.0800       106
    10.1000       108
    10.1200        94
    10.1400       142
    10.1600       110
    10.1800       100
    10.2000       100
    10.2200       108
    10.2400       124
    10.2600       120
    10.2800       104
    10.3000       100
    10.3200        96
    10.3400        94
    10.3600        98
    10.3800       106
    10.4000        78
    10.4200       126
    10.4400        96
    10.4600        92
    10.4800        98
    10.5000        94
    10.5200       114
    10.5400       104
    10.5600        96
    10.5800       110
    10.6000        80
    10.6200        96
    10.6400        92
    10.6600       110
    10.6800       106
    10.7000        90
    10.7200        94
    10.7400        98
    10.7600        90
    10.7800        90
    10.8000       100
    10.8200        92
    10.8400       102
    10.8600       104
    10.8800        80
    10.9000        96
    10.9200        84
    10.9400        90
    10.9600        80
    10.9800        80
    11.0000        94
    11.0200        86
    11.0400        98
    11.0600        96
    11.0800       100
    11.1000        88
    11.1200        92
    11.1400       102
    11.1600        92
    11.1800        88
    11.2000        78
    11.2200        90
    11.2400        72
    11.2600        84
    11.2800        86
    11.3000        74
    11.3200        68
    11.3400        62
    11.3600        80
    11.3800       104
    11.4000        72
    11.4200        62
    11.4400        78
    11.4600        82
    11.4800        86
    11.5000        82
    11.5200        74
    11.5400        86
    11.5600        88
    11.5800        72
    11.6000        96
    11.6200        82
    11.6400        88
    11.6600        90
    11.6800        76
    11.7000        68
    11.7200        88
    11.7400        90
    11.7600        62
    11.7800       104
    11.8000        82
    11.8200        68
    11.8400        82
    11.8600        88
    11.8800        88
    11.9000        94
    11.9200        82
    11.9400        80
    11.9600        80
    11.9800        64
    12.0000        86
    12.0200       110
    12.0400        88
    12.0600        92
    12.0800        74
    12.1000        90
    12.1200        74
    12.1400        94
    12.1600        74
    12.1800        88
    12.2000        84
    12.2200        86
    12.2400        64
    12.2600        84
    12.2800        80
    12.3000        86
    12.3200        90
    12.3400        72
    12.3600        78
    12.3800        78
    12.4000        62
    12.4200        68
    12.4400        94
    12.4600        96
    12.4800        68
    12.5000        72
    12.5200        86
    12.5400        72
    12.5600        72
    12.5800        70
    12.6000        70
    12.6200        78
    12.6400        76
    12.6600        76
    12.6800        80
    12.7000        64
    12.7200        78
    12.7400        84
    12.7600        68
    12.7800        72
    12.8000        82
    12.8200        70
    12.8400        68
    12.8600        50
    12.8800        84
    12.9000        76
    12.9200        60
    12.9400        72
    12.9600        72
    12.9800        78
    13.0000        66
    13.0200        74
    13.0400        56
    13.0600        64
    13.0800        66
    13.1000        68
    13.1200        74
    13.1400        72
    13.1600        58
    13.1800        70
    13.2000        76
    13.2200        54
    13.2400        68
    13.2600        72
    13.2800        70
    13.3000        72
    13.3200        60
    13.3400        60
    13.3600        60
    13.3800        72
    13.4000        58
    13.4200        62
    13.4400        72
    13.4600        72
    13.4800        68
    13.5000        74
    13.5200        86
    13.5400        70
    13.5600        76
    13.5800        66
    13.6000        66
    13.6200        76
    13.6400        64
    13.6600        60
    13.6800        70
    13.7000        68
    13.7200        54
    13.7400        70
    13.7600        60
    13.7800        76
    13.8000        58
    13.8200        74
    13.8400        74
    13.8600        66
    13.8800        62
    13.9000        60
    13.9200        70
    13.9400        78
    13.9600        56
    13.9800        64
    14.0000        54
    14.0200        56
    14.0400        62
    14.0600        62
    14.0800        56
    14.1000        56
    14.1200        88
    14.1400        66
    14.1600        58
    14.1800        58
    14.2000        56
    14.2200        88
    14.2400        68
    14.2600        74
    14.2800        66
    14.3000        70
    14.3200        66
    14.3400        66
    14.3600        74
    14.3800        56
    14.4000        78
    14.4200        62
    14.4400        50
    14.4600        68
    14.4800        76
    14.5000        56
    14.5200        56
    14.5400        84
    14.5600        64
    14.5800        58
    14.6000        66
    14.6200        72
    14.6400        60
    14.6600        54
    14.6800        50
    14.7000        68
    14.7200        74
    14.7400        58
    14.7600        56
    14.7800        78
    14.8000        62
    14.8200        76
    14.8400        54
    14.8600        60
    14.8800        64
    14.9000        58
    14.9200        76
    14.9400        50
    14.9600        62
    14.9800        54
    15.0000        66
    15.0200        72
    15.0400        64
    15.0600        66
    15.0800        62
    15.1000        66
    15.1200        68
    15.1400        84
    15.1600        80
    15.1800        76
    15.2000        72
    15.2200        96
    15.2400       100
    15.2600       120
    15.2800       104
    15.3000       104
    15.3200       130
    15.3400       156
    15.3600       152
    15.3800       192
    15.4000       176
    15.4200       200
    15.4400       188
    15.4600       202
    15.4800       166
    15.5000       144
    15.5200       138
    15.5400       114
    15.5600       112
    15.5800        82
    15.6000        80
    15.6200       100
    15.6400        76
    15.6600        74
    15.6800        82
    15.7000        68
    15.7200        88
    15.7400        62
    15.7600        56
    15.7800        58
    15.8000        50
    15.8200        60
    15.8400        56
    15.8600        56
    15.8800        62
    15.9000        58
    15.9200        60
    15.9400        54
    15.9600        50
    15.9800        60
    16.0000        54
    16.0200        54
    16.0400        54
    16.0600        52
    16.0800        56
    16.1000        54
    16.1200        52
    16.1400        64
    16.1600        56
    16.1800        40
    16.2000        62
    16.2200        56
    16.2400        64
    16.2600        52
    16.2800        64
    16.3000        62
    16.3200        64
    16.3400        56
    16.3600        46
    16.3800        70
    16.4000        64
    16.4200        56
    16.4400        58
    16.4600        48
    16.4800        62
    16.5000        64
    16.5200        68
    16.5400        66
    16.5600        52
    16.5800        66
    16.6000        34
    16.6200        60
    16.6400        56
    16.6600        58
    16.6800        48
    16.7000        58
    16.7200        56
    16.7400        58
    16.7600        60
    16.7800        60
    16.8000        68
    16.8200        72
    16.8400        56
    16.8600        56
    16.8800        62
    16.9000        64
    16.9200        58
    16.9400        46
    16.9600        68
    16.9800        60
    17.0000        66
    17.0200        66
    17.0400        72
    17.0600        60
    17.0800        70
    17.1000        52
    17.1200        62
    17.1400        62
    17.1600        68
    17.1800        64
    17.2000        68
    17.2200        58
    17.2400        78
    17.2600        78
    17.2800        70
    17.3000        82
    17.3200        80
    17.3400        70
    17.3600        80
    17.3800       104
    17.4000       104
    17.4200       102
    17.4400       108
    17.4600       132
    17.4800       122
    17.5000       140
    17.5200       124
    17.5400       160
    17.5600       176
    17.5800       216
    17.6000       216
    17.6200       244
    17.6400       274
    17.6600       354
    17.6800       360
    17.7000       456
    17.7200       548
    17.7400       638
    17.7600       756
    17.7800       944
    17.8000      1118
    17.8200      1090
    17.8400      1132
    17.8600      1016
    17.8800       978
    17.9000       820
    17.9200       696
    17.9400       564
    17.9600       446
    17.9800       392
    18.0000       288
    18.0200       244
    18.0400       194
    18.0600       142
    18.0800       146
    18.1000       106
    18.1200        78
    18.1400        76
    18.1600        76
    18.1800        52
    18.2000        70
    18.2200        84
    18.2400        58
    18.2600        52
    18.2800        58
    18.3000        64
    18.3200        56
    18.3400        50
    18.3600        50
    18.3800        56
    18.4000        54
    18.4200        42
    18.4400        60
    18.4600        44
    18.4800        40
    18.5000        50
    18.5200        50
    18.5400        52
    18.5600        44
    18.5800        42
    18.6000        58
    18.6200        46
    18.6400        46
    18.6600        52
    18.6800        54
    18.7000        48
    18.7200        40
    18.7400        68
    18.7600        50
    18.7800        60
    18.8000        58
    18.8200        54
    18.8400        52
    18.8600        44
    18.8800        54
    18.9000        56
    18.9200        44
    18.9400        50
    18.9600        48
    18.9800        46
    19.0000        46
    19.0200        54
    19.0400        48
    19.0600        48
    19.0800        52
    19.1000        42
    19.1200        48
    19.1400        50
    19.1600        38
    19.1800        50
    19.2000        64
    19.2200        48
    19.2400        60
    19.2600        66
    19.2800        42
    19.3000        68
    19.3200        50
    19.3400        42
    19.3600        52
    19.3800        54
    19.4000        32
    19.4200        48
    19.4400        44
    19.4600        34
    19.4800        56
    19.5000        60
    19.5200        58
    19.5400        66
    19.5600        42
    19.5800        44
    19.6000        58
    19.6200        52
    19.6400        66
    19.6600        36
    19.6800        48
    19.7000        46
    19.7200        42
    19.7400        42
    19.7600        42
    19.7800        50
    19.8000        60
    19.8200        48
    19.8400        32
    19.8600        46
    19.8800        44
    19.9000        46
    19.9200        58
    19.9400        46
    19.9600        52
    19.9800        52
    20.0000        58
    20.0200        54
    20.0400        48
    20.0600        48
    20.0800        58
    20.1000        54
    20.1200        58
    20.1400        64
    20.1600        48
    20.1800        50
    20.2000        46
    20.2200        42
    20.2400        32
    20.2600        38
    20.2800        44
    20.3000        48
    20.3200        34
    20.3400        58
    20.3600        38
    20.3800        48
    20.4000        54
    20.4200        48
    20.4400        42
    20.4600        42
    20.4800        56
    20.5000        50
    20.5200        44
    20.5400        60
    20.5600        40
    20.5800        38
    20.6000        56
    20.6200        54
    20.6400        36
    20.6600        52
    20.6800        50
    20.7000        40
    20.7200        48
    20.7400        38
    20.7600        42
    20.7800        70
    20.8000        50
    20.8200        48
    20.8400        48
    20.8600        34
    20.8800        54
    20.9000        38
    20.9200        54
    20.9400        46
    20.9600        42
    20.9800        50
    21.0000        38
    21.0200        36
    21.0400        40
    21.0600        52
    21.0800        56
    21.1000        44
    21.1200        36
    21.1400        48
    21.1600        40
    21.1800        44
    21.2000        42
    21.2200        46
    21.2400        40
    21.2600        46
    21.2800        38
    21.3000        40
    21.3200        38
    21.3400        42
    21.3600        40
    21.3800        30
    21.4000        50
    21.4200        40
    21.4400        30
    21.4600        40
    21.4800        44
    21.5000        32
    21.5200        34
    21.5400        50
    21.5600        54
    21.5800        56
    21.6000        42
    21.6200        32
    21.6400        48
    21.6600        42
    21.6800        46
    21.7000        32
    21.7200        40
    21.7400        56
    21.7600        34
    21.7800        54
    21.8000        44
    21.8200        50
    21.8400        38
    21.8600        40
    21.8800        46
    21.9000        50
    21.9200        46
    21.9400        42
    21.9600        54
    21.9800        50
    22.0000        50
    22.0200        44
    22.0400        38
    22.0600        38
    22.0800        32
    22.1000        40
    22.1200        48
    22.1400        48
    22.1600        40
    22.1800        26
    22.2000        36
    22.2200        40
    22.2400        52
    22.2600        50
    22.2800        52
    22.3000        42
    22.3200        52
    22.3400        46
    22.3600        36
    22.3800        44
    22.4000        38
    22.4200        52
    22.4400        34
    22.4600        52
    22.4800        40
    22.5000        40
    22.5200        28
    22.5400        38
    22.5600        50
    22.5800        36
    22.6000        42
    22.6200        34
    22.6400        44
    22.6600        62
    22.6800        40
    22.7000        52
    22.7200        28
    22.7400        38
    22.7600        34
    22.7800        46
    22.8000        26
    22.8200        42
    22.8400        38
    22.8600        38
    22.8800        42
    22.9000        38
    22.9200        36
    22.9400        44
    22.9600        52
    22.9800        44
    23.0000        50
    23.0200        32
    23.0400        44
    23.0600        44
    23.0800        34
    23.1000        44
    23.1200        30
    23.1400        34
    23.1600        32
    23.1800        44
    23.2000        26
    23.2200        50
    23.2400        36
    23.2600        34
    23.2800        42
    23.3000        32
    23.3200        40
    23.3400        36
    23.3600        46
    23.3800        30
    23.4000        40
    23.4200        40
    23.4400        46
    23.4600        44
    23.4800        52
    23.5000        28
    23.5200        42
    23.5400        30
    23.5600        28
    23.5800        36
    23.6000        42
    23.6200        30
    23.6400        44
    23.6600        44
    23.6800        42
    23.7000        34
    23.7200        30
    23.7400        38
    23.7600        32
    23.7800        42
    23.8000        46
    23.8200        44
    23.8400        32
    23.8600        30
    23.8800        24
    23.9000        32
    23.9200        32
    23.9400        34
    23.9600        38
    23.9800        34
    24.0000        40
    24.0200        54
    24.0400        44
    24.0600        40
    24.0800        40
    24.1000        36
    24.1200        48
    24.1400        30
    24.1600        40
    24.1800        34
    24.2000        36
    24.2200        38
    24.2400        30
    24.2600        36
    24.2800        34
    24.3000        32
    24.3200        36
    24.3400        36
    24.3600        48
    24.3800        40
    24.4000        32
    24.4200        26
    24.4400        52
    24.4600        44
    24.4800        36
    24.5000        28
    24.5200        32
    24.5400        40
    24.5600        46
    24.5800        34
    24.6000        32
    24.6200        38
    24.6400        40
    24.6600        50
    24.6800        42
    24.7000        42
    24.7200        40
    24.7400        38
    24.7600        40
    24.7800        46
    24.8000        36
    24.8200        28
    24.8400        48
    24.8600        32
    24.8800        32
    24.9000        44
    24.9200        34
    24.9400        38
    24.9600        50
    24.9800        54
    25.0000        48
    25.0200        48
    25.0400        50
    25.0600        62
    25.0800        52
    25.1000        46
    25.1200        86
    25.1400        80
    25.1600        88
    25.1800       108
    25.2000       144
    25.2200       152
    25.2400       204
    25.2600       194
    25.2800       252
    25.3000       284
    25.3200       314
    25.3400       346
    25.3600       320
    25.3800       298
    25.4000       270
    25.4200       216
    25.4400       210
    25.4600       128
    25.4800       138
    25.5000       104
    25.5200       100
    25.5400        60
    25.5600        64
    25.5800        70
    25.6000        54
    25.6200        58
    25.6400        40
    25.6600        58
    25.6800        50
    25.7000        44
    25.7200        54
    25.7400        28
    25.7600        34
    25.7800        38
    25.8000        28
    25.8200        36
    25.8400        30
    25.8600        34
    25.8800        20
    25.9000        44
    25.9200        34
    25.9400        40
    25.9600        34
    25.9800        40
    26.0000        30
    26.0200        26
    26.0400        44
    26.0600        24
    26.0800        32
    26.1000        38
    26.1200        38
    26.1400        34
    26.1600        34
    26.1800        34
    26.2000        38
    26.2200        26
    26.2400        32
    26.2600        30
    26.2800        24
    26.3000        44
    26.3200        44
    26.3400        36
    26.3600        36
    26.3800        36
    26.4000        44
    26.4200        24
    26.4400        28
    26.4600        24
    26.4800        32
    26.5000        28
    26.5200        44
    26.5400        26
    26.5600        30
    26.5800        28
    26.6000        32
    26.6200        38
    26.6400        36
    26.6600        28
    26.6800        28
    26.7000        26
    26.7200        32
    26.7400        42
    26.7600        26
    26.7800        52
    26.8000        38
    26.8200        34
    26.8400        32
    26.8600        42
    26.8800        36
    26.9000        40
    26.9200        44
    26.9400        32
    26.9600        48
    26.9800        42
    27.0000        48
    27.0200        40
    27.0400        32
    27.0600        40
    27.0800        32
    27.1000        50
    27.1200        30
    27.1400        30
    27.1600        30
    27.1800        46
    27.2000        32
    27.2200        36
    27.2400        30
    27.2600        52
    27.2800        26
    27.3000        34
    27.3200        22
    27.3400        24
    27.3600        36
    27.3800        28
    27.4000        34
    27.4200        40
    27.4400        30
    27.4600        30
    27.4800        28
    27.5000        28
    27.5200        44
    27.5400        28
    27.5600        50
    27.5800        34
    27.6000        32
    27.6200        32
    27.6400        22
    27.6600        30
    27.6800        38
    27.7000        30
    27.7200        30
    27.7400        36
    27.7600        22
    27.7800        24
    27.8000        32
    27.8200        36
    27.8400        38
    27.8600        26
    27.8800        48
    27.9000        42
    27.9200        32
    27.9400        34
    27.9600        24
    27.9800        42
    28.0000        40
    28.0200        32
    28.0400        20
    28.0600        40
    28.0800        34
    28.1000        36
    28.1200        26
    28.1400        32
    28.1600        38
    28.1800        40
    28.2000        34
    28.2200        42
    28.2400        38
    28.2600        34
    28.2800        44
    28.3000        34
    28.3200        36
    28.3400        38
    28.3600        28
    28.3800        36
    28.4000        36
    28.4200        42
    28.4400        36
    28.4600        42
    28.4800        34
    28.5000        38
    28.5200        42
    28.5400        34
    28.5600        30
    28.5800        40
    28.6000        36
    28.6200        36
    28.6400        46
    28.6600        40
    28.6800        38
    28.7000        40
    28.7200        42
    28.7400        30
    28.7600        48
    28.7800        40
    28.8000        34
    28.8200        34
    28.8400        34
    28.8600        36
    28.8800        42
    28.9000        40
    28.9200        42
    28.9400        36
    28.9600        36
    28.9800        42
    29.0000        48
    29.0200        34
    29.0400        46
    29.0600        44
    29.0800        40
    29.1000        36
    29.1200        42
    29.1400        36
    29.1600        46
    29.1800        50
    29.2000        36
    29.2200        60
    29.2400        56
    29.2600        42
    29.2800        50
    29.3000        60
    29.3200        64
    29.3400        58
    29.3600        56
    29.3800        76
    29.4000        66
    29.4200        68
    29.4400        74
    29.4600       102
    29.4800       122
    29.5000       114
    29.5200       156
    29.5400       152
    29.5600       174
    29.5800       214
    29.6000       266
    29.6200       306
    29.6400       374
    29.6600       472
    29.6800       620
    29.7000       732
    29.7200       952
    29.7400      1308
    29.7600      1414
    29.7800      1732
    29.8000      1908
    29.8200      2068
    29.8400      2106
    29.8600      2008
    29.8800      1806
    29.9000      1632
    29.9200      1340
    29.9400      1082
    29.9600      1004
    29.9800       802
    30.0000       624
    30.0200       438
    30.0400       412
    30.0600       298
    30.0800       218
    30.1000       230
    30.1200       188
    30.1400       108
    30.1600       120
    30.1800       104
    30.2000        74
    30.2200        82
    30.2400        68
    30.2600        58
    30.2800        46
    30.3000        56
    30.3200        42
    30.3400        42
    30.3600        46
    30.3800        52
    30.4000        36
    30.4200        40
    30.4400        48
    30.4600        36
    30.4800        34
    30.5000        36
    30.5200        38
    30.5400        34
    30.5600        30
    30.5800        44
    30.6000        30
    30.6200        30
    30.6400        32
    30.6600        28
    30.6800        48
    30.7000        38
    30.7200        34
    30.7400        32
    30.7600        40
    30.7800        36
    30.8000        34
    30.8200        24
    30.8400        38
    30.8600        42
    30.8800        42
    30.9000        32
    30.9200        34
    30.9400        38
    30.9600        40
    30.9800        38
    31.0000        56
    31.0200        42
    31.0400        54
    31.0600        50
    31.0800        68
    31.1000        54
    31.1200        86
    31.1400        94
    31.1600       108
    31.1800       116
    31.2000       118
    31.2200       130
    31.2400       114
    31.2600       126
    31.2800       110
    31.3000       116
    31.3200       104
    31.3400        74
    31.3600        80
    31.3800        76
    31.4000        44
    31.4200        52
    31.4400        52
    31.4600        52
    31.4800        42
    31.5000        48
    31.5200        24
    31.5400        32
    31.5600        34
    31.5800        32
    31.6000        34
    31.6200        32
    31.6400        28
    31.6600        36
    31.6800        38
    31.7000        32
    31.7200        38
    31.7400        32
    31.7600        22
    31.7800        20
    31.8000        38
    31.8200        22
    31.8400        40
    31.8600        28
    31.8800        22
    31.9000        28
    31.9200        30
    31.9400        28
    31.9600        28
    31.9800        30
    32.0000        30
    32.0200        26
    32.0400        16
    32.0600        20
    32.0800        34
    32.1000        32
    32.1200        32
    32.1400        22
    32.1600        32
    32.1800        32
    32.2000        36
    32.2200        28
    32.2400        22
    32.2600        34
    32.2800        28
    32.3000        30
    32.3200        28
    32.3400        26
    32.3600        34
    32.3800        22
    32.4000        30
    32.4200        36
    32.4400        40
    32.4600        32
    32.4800        18
    32.5000        30
    32.5200        32
    32.5400        22
    32.5600        26
    32.5800        36
    32.6000        24
    32.6200        22
    32.6400        30
    32.6600        30
    32.6800        24
    32.7000        30
    32.7200        38
    32.7400        18
    32.7600        24
    32.7800        22
    32.8000        38
    32.8200        30
    32.8400        28
    32.8600        24
    32.8800        32
    32.9000        36
    32.9200        26
    32.9400        32
    32.9600        34
    32.9800        36
    33.0000        26
    33.0200        32
    33.0400        28
    33.0600        18
    33.0800        22
    33.1000        28
    33.1200        36
    33.1400        22
    33.1600        26
    33.1800        26
    33.2000        36
    33.2200        34
    33.2400        30
    33.2600        24
    33.2800        20
    33.3000        28
    33.3200        24
    33.3400        28
    33.3600        26
    33.3800        30
    33.4000        28
    33.4200        22
    33.4400        14
    33.4600        26
    33.4800        28
    33.5000        22
    33.5200        28
    33.5400        40
    33.5600        22
    33.5800        28
    33.6000        30
    33.6200        20
    33.6400        26
    33.6600        36
    33.6800        20
    33.7000        26
    33.7200        30
    33.7400        28
    33.7600        24
    33.7800        28
    33.8000        34
    33.8200        28
    33.8400        24
    33.8600        28
    33.8800        22
    33.9000        32
    33.9200        28
    33.9400        36
    33.9600        30
    33.9800        24
    34.0000        24
    34.0200        28
    34.0400        22
    34.0600        30
    34.0800        34
    34.1000        22
    34.1200        24
    34.1400        22
    34.1600        28
    34.1800        26
    34.2000        22
    34.2200        40
    34.2400        24
    34.2600        34
    34.2800        24
    34.3000        20
    34.3200        18
    34.3400        16
    34.3600        28
    34.3800        24
    34.4000        32
    34.4200        16
    34.4400        16
    34.4600        18
    34.4800        26
    34.5000        20
    34.5200        28
    34.5400        28
    34.5600        28
    34.5800        30
    34.6000        34
    34.6200        16
    34.6400        16
    34.6600        28
    34.6800        34
    34.7000        24
    34.7200        24
    34.7400        22
    34.7600        26
    34.7800        22
    34.8000        30
    34.8200        22
    34.8400        32
    34.8600        28
    34.8800        24
    34.9000        32
    34.9200        36
    34.9400        36
    34.9600        28
    34.9800        34
    35.0000        28
    35.0200        32
    35.0400        24
    35.0600        26
    35.0800        28
    35.1000        30
    35.1200        16
    35.1400        26
    35.1600        34
    35.1800        30
    35.2000        24
    35.2200        26
    35.2400        32
    35.2600        38
    35.2800        24
    35.3000        24
    35.3200        30
    35.3400        26
    35.3600        14
    35.3800        34
    35.4000        28
    35.4200        26
    35.4400        26
    35.4600        28
    35.4800        30
    35.5000        28
    35.5200        24
    35.5400        12
    35.5600        28
    35.5800        34
    35.6000        26
    35.6200        20
    35.6400        32
    35.6600        26
    35.6800        34
    35.7000        32
    35.7200        20
    35.7400        24
    35.7600        30
    35.7800        36
    35.8000        34
    35.8200        20
    35.8400        24
    35.8600        24
    35.8800        26
    35.9000        26
    35.9200        32
    35.9400        24
    35.9600        40
    35.9800        32
    36.0000        48
    36.0200        32
    36.0400        40
    36.0600        34
    36.0800        42
    36.1000        56
    36.1200        34
    36.1400        64
    36.1600        60
    36.1800        70
    36.2000        58
    36.2200        54
    36.2400        64
    36.2600        48
    36.2800        56
    36.3000        44
    36.3200        46
    36.3400        32
    36.3600        30
    36.3800        42
    36.4000        34
    36.4200        34
    36.4400        42
    36.4600        24
    36.4800        34
    36.5000        20
    36.5200        18
    36.5400        28
    36.5600        28
    36.5800        30
    36.6000        24
    36.6200        26
    36.6400        36
    36.6600        28
    36.6800        28
    36.7000        32
    36.7200        28
    36.7400        26
    36.7600        28
    36.7800        24
    36.8000        22
    36.8200        30
    36.8400        28
    36.8600        24
    36.8800        32
    36.9000        22
    36.9200        26
    36.9400        28
    36.9600        28
    36.9800        16
    37.0000        28
    37.0200        24
    37.0400        24
    37.0600        18
    37.0800        16
    37.1000        28
    37.1200        22
    37.1400        18
    37.1600        24
    37.1800        20
    37.2000        22
    37.2200        26
    37.2400        26
    37.2600        26
    37.2800        16
    37.3000        22
    37.3200        24
    37.3400        34
    37.3600        14
    37.3800        28
    37.4000        26
    37.4200        34
    37.4400        18
    37.4600        26
    37.4800        26
    37.5000        30
    37.5200        26
    37.5400        30
    37.5600        20
    37.5800        22
    37.6000        24
    37.6200        20
    37.6400        24
    37.6600        26
    37.6800        30
    37.7000        26
    37.7200        30
    37.7400        22
    37.7600        26
    37.7800        30
    37.8000        26
    37.8200        24
    37.8400        34
    37.8600        40
    37.8800        32
    37.9000        20
    37.9200        34
    37.9400        34
    37.9600        26
    37.9800        34
    38.0000        26
    38.0200        22
    38.0400        28
    38.0600        30
    38.0800        28
    38.1000        20
    38.1200        14
    38.1400        30
    38.1600        22
    38.1800        28
    38.2000        30
    38.2200        30
    38.2400        34
    38.2600        18
    38.2800        20
    38.3000        28
    38.3200        26
    38.3400        32
    38.3600        30
    38.3800        26
    38.4000        32
    38.4200        22
    38.4400        34
    38.4600        26
    38.4800        30
    38.5000        24
    38.5200        38
    38.5400        36
    38.5600        38
    38.5800        30
    38.6000        22
    38.6200        20
    38.6400        26
    38.6600        28
    38.6800        28
    38.7000        34
    38.7200        38
    38.7400        26
    38.7600        14
    38.7800        36
    38.8000        38
    38.8200        20
    38.8400        32
    38.8600        28
    38.8800        34
    38.9000        24
    38.9200        40
    38.9400        40
    38.9600        28
    38.9800        32
    39.0000        34
    39.0200        22
    39.0400        32
    39.0600        28
    39.0800        40
    39.1000        34
    39.1200        36
    39.1400        34
    39.1600        26
    39.1800        42
    39.2000        30
    39.2200        38
    39.2400        34
    39.2600        40
    39.2800        50
    39.3000        50
    39.3200        72
    39.3400        58
    39.3600        60
    39.3800        84
    39.4000        78
    39.4200       114
    39.4400       134
    39.4600       152
    39.4800       182
    39.5000       268
    39.5200       316
    39.5400       378
    39.5600       446
    39.5800       480
    39.6000       436
    39.6200       488
    39.6400       428
    39.6600       468
    39.6800       406
    39.7000       406
    39.7200       314
    39.7400       298
    39.7600       246
    39.7800       202
    39.8000       184
    39.8200       118
    39.8400       120
    39.8600       118
    39.8800        78
    39.9000       120
    39.9200        62
    39.9400        72
    39.9600        72
    39.9800        78
    40.0000        62
    40.0200        68
    40.0400        48
    40.0600        52
    40.0800        52
    40.1000        58
    40.1200        52
    40.1400        50
    40.1600        36
    40.1800        34
    40.2000        40
    40.2200        38
    40.2400        46
    40.2600        42
    40.2800        36
    40.3000        30
    40.3200        28
    40.3400        28
    40.3600        42
    40.3800        34
    40.4000        28
    40.4200        34
    40.4400        44
    40.4600        38
    40.4800        48
    40.5000        44
    40.5200        58
    40.5400        62
    40.5600        70
    40.5800        78
    40.6000        90
    40.6200        88
    40.6400        96
    40.6600        88
    40.6800        82
    40.7000        80
    40.7200        70
    40.7400        56
    40.7600        64
    40.7800        38
    40.8000        56
    40.8200        42
    40.8400        30
    40.8600        34
    40.8800        28
    40.9000        36
    40.9200        22
    40.9400        32
    40.9600        28
    40.9800        18
    41.0000        26
    41.0200        18
    41.0400        36
    41.0600        24
    41.0800        36
    41.1000        20
    41.1200        26
    41.1400        22
    41.1600        22
    41.1800        26
    41.2000        22
    41.2200        30
    41.2400        32
    41.2600        24
    41.2800        24
    41.3000        26
    41.3200        36
    41.3400        22
    41.3600        18
    41.3800        26
    41.4000        16
    41.4200        26
    41.4400        22
    41.4600        28
    41.4800        22
    41.5000        24
    41.5200        24
    41.5400        42
    41.5600        42
    41.5800        26
    41.6000        18
    41.6200        22
    41.6400        34
    41.6600        20
    41.6800        26
    41.7000        22
    41.7200        16
    41.7400        24
    41.7600        26
    41.7800        28
    41.8000        36
    41.8200        24
    41.8400        14
    41.8600        14
    41.8800        22
    41.9000        22
    41.9200        30
    41.9400        22
    41.9600        34
    41.9800        22
    42.0000        20
    42.0200        28
    42.0400        16
    42.0600        24
    42.0800        18
    42.1000        40
    42.1200        24
    42.1400        26
    42.1600        24
    42.1800        20
    42.2000        28
    42.2200        26
    42.2400        20
    42.2600        24
    42.2800        26
    42.3000        22
    42.3200        20
    42.3400        20
    42.3600        24
    42.3800        28
    42.4000        24
    42.4200        28
    42.4400        30
    42.4600        26
    42.4800        26
    42.5000        22
    42.5200        18
    42.5400        18
    42.5600        24
    42.5800        28
    42.6000        30
    42.6200        24
    42.6400        20
    42.6600        20
    42.6800        24
    42.7000        26
    42.7200        34
    42.7400        34
    42.7600        24
    42.7800        26
    42.8000        38
    42.8200        18
    42.8400        28
    42.8600        22
    42.8800        26
    42.9000        16
    42.9200        28
    42.9400        22
    42.9600        16
    42.9800        26
    43.0000        20
    43.0200        20
    43.0400        20
    43.0600        20
    43.0800        14
    43.1000        22
    43.1200        32
    43.1400        20
    43.1600        22
    43.1800        20
    43.2000        22
    43.2200        22
    43.2400        36
    43.2600        22
    43.2800        24
    43.3000        18
    43.3200        22
    43.3400        24
    43.3600        24
    43.3800        24
    43.4000        28
    43.4200        34
    43.4400        20
    43.4600        18
    43.4800        28
    43.5000        20
    43.5200        20
    43.5400        22
    43.5600        26
    43.5800        20
    43.6000        28
    43.6200        26
    43.6400        20
    43.6600        26
    43.6800        20
    43.7000        24
    43.7200        26
    43.7400        12
    43.7600        34
    43.7800        26
    43.8000        22
    43.8200        26
    43.8400        20
    43.8600        18
    43.8800        24
    43.9000        28
    43.9200        18
    43.9400        20
    43.9600        24
    43.9800        28
    44.0000        24
    44.0200        24
    44.0400        20
    44.0600        20
    44.0800        32
    44.1000        26
    44.1200        28
    44.1400        18
    44.1600        24
    44.1800        22
    44.2000        20
    44.2200        30
    44.2400        24
    44.2600        24
    44.2800        30
    44.3000        28
    44.3200        20
    44.3400        22
    44.3600        24
    44.3800        28
    44.4000        24
    44.4200        20
    44.4400        28
    44.4600        14
    44.4800        30
    44.5000        26
    44.5200        26
    44.5400        20
    44.5600        26
    44.5800        18
    44.6000        14
    44.6200        24
    44.6400        30
    44.6600        26
    44.6800        24
    44.7000        30
    44.7200        26
    44.7400        34
    44.7600        26
    44.7800        20
    44.8000        24
    44.8200        26
    44.8400        30
    44.8600        16
    44.8800        14
    44.9000        28
    44.9200        24
    44.9400        24
    44.9600        18
    44.9800        40
    45.0000        28
    45.0200        34
    45.0400        18
    45.0600        26
    45.0800        20
    45.1000        34
    45.1200        20
    45.1400        26
    45.1600        22
    45.1800        20
    45.2000        16
    45.2200        32
    45.2400        32
    45.2600        18
    45.2800        14
    45.3000        24
    45.3200        26
    45.3400        16
    45.3600        34
    45.3800        32
    45.4000        24
    45.4200        18
    45.4400        26
    45.4600        32
    45.4800        28
    45.5000        22
    45.5200        24
    45.5400        30
    45.5600        26
    45.5800        18
    45.6000        26
    45.6200        28
    45.6400        26
    45.6600        22
    45.6800        30
    45.7000        22
    45.7200        28
    45.7400        28
    45.7600        20
    45.7800        34
    45.8000        26
    45.8200        28
    45.8400        24
    45.8600        24
    45.8800        20
    45.9000        26
    45.9200        28
    45.9400        30
    45.9600        18
    45.9800        24
    46.0000        22
    46.0200        24
    46.0400        26
    46.0600        22
    46.0800        18
    46.1000        20
    46.1200        24
    46.1400        22
    46.1600        18
    46.1800        22
    46.2000        28
    46.2200        20
    46.2400        32
    46.2600        24
    46.2800        32
    46.3000        24
    46.3200        26
    46.3400        26
    46.3600        24
    46.3800        28
    46.4000        30
    46.4200        24
    46.4400        20
    46.4600        20
    46.4800        32
    46.5000        26
    46.5200        16
    46.5400        22
    46.5600        26
    46.5800        28
    46.6000        26
    46.6200        34
    46.6400        20
    46.6600        32
    46.6800        26
    46.7000        32
    46.7200        22
    46.7400        40
    46.7600        36
    46.7800        32
    46.8000        26
    46.8200        28
    46.8400        28
    46.8600        34
    46.8800        28
    46.9000        26
    46.9200        38
    46.9400        24
    46.9600        26
    46.9800        34
    47.0000        26
    47.0200        28
    47.0400        32
    47.0600        34
    47.0800        22
    47.1000        30
    47.1200        28
    47.1400        30
    47.1600        36
    47.1800        34
    47.2000        42
    47.2200        40
    47.2400        40
    47.2600        48
    47.2800        50
    47.3000        30
    47.3200        46
    47.3400        52
    47.3600        60
    47.3800        52
    47.4000       100
    47.4200       108
    47.4400       150
    47.4600       148
    47.4800       212
    47.5000       270
    47.5200       342
    47.5400       448
    47.5600       474
    47.5800       550
    47.6000       588
    47.6200       594
    47.6400       574
    47.6600       560
    47.6800       492
    47.7000       520
    47.7200       454
    47.7400       390
    47.7600       344
    47.7800       292
    47.8000       218
    47.8200       206
    47.8400       158
    47.8600       154
    47.8800       110
    47.9000       102
    47.9200        82
    47.9400        88
    47.9600        74
    47.9800        48
    48.0000        52
    48.0200        44
    48.0400        44
    48.0600        34
    48.0800        40
    48.1000        42
    48.1200        34
    48.1400        34
    48.1600        28
    48.1800        44
    48.2000        38
    48.2200        36
    48.2400        34
    48.2600        24
    48.2800        30
    48.3000        32
    48.3200        34
    48.3400        22
    48.3600        30
    48.3800        38
    48.4000        34
    48.4200        28
    48.4400        26
    48.4600        24
    48.4800        38
    48.5000        28
    48.5200        30
    48.5400        26
    48.5600        26
    48.5800        32
    48.6000        26
    48.6200        28
    48.6400        24
    48.6600        28
    48.6800        28
    48.7000        30
    48.7200        30
    48.7400        20
    48.7600        32
    48.7800        30
    48.8000        30
    48.8200        26
    48.8400        12
    48.8600        36
    48.8800        24
    48.9000        32
    48.9200        22
    48.9400        28
    48.9600        20
    48.9800        26
    49.0000        30
    49.0200        26
    49.0400        26
    49.0600        22
    49.0800        32
    49.1000        30
    49.1200        16
    49.1400        24
    49.1600        34
    49.1800        28
    49.2000        24
    49.2200        24
    49.2400        30
    49.2600        30
    49.2800        34
    49.3000        28
    49.3200        24
    49.3400        24
    49.3600        22
    49.3800        18
    49.4000        26
    49.4200        24
    49.4400        22
    49.4600        22
    49.4800        28
    49.5000        24
    49.5200        20
    49.5400        16
    49.5600        20
    49.5800        22
    49.6000        24
    49.6200        26
    49.6400        24
    49.6600        28
    49.6800        22
    49.7000        26
    49.7200        26
    49.7400        28
    49.7600        26
    49.7800        20
    49.8000        28
    49.8200        24
    49.8400        22
    49.8600        28
    49.8800        28
    49.9000        28
    49.9200        10
    49.9400        16
    49.9600        14
    49.9800        22
    50.0000        28
    50.0200        22
    50.0400        18
    50.0600        24
    50.0800        22
    50.1000        20
    50.1200        32
    50.1400        20
    50.1600        22
    50.1800        30
    50.2000        36
    50.2200        18
    50.2400        32
    50.2600        20
    50.2800        28
    50.3000        24
    50.3200        16
    50.3400        26
    50.3600        22
    50.3800        32
    50.4000        18
    50.4200        30
    50.4400        26
    50.4600        24
    50.4800        16
    50.5000        28
    50.5200        30
    50.5400        34
    50.5600        24
    50.5800        24
    50.6000        28
    50.6200        28
    50.6400        32
    50.6600        30
    50.6800        38
    50.7000        34
    50.7200        30
    50.7400        24
    50.7600        22
    50.7800        30
    50.8000        18
    50.8200        32
    50.8400        32
    50.8600        26
    50.8800        18
    50.9000        24
    50.9200        34
    50.9400        22
    50.9600        26
    50.9800        26
    51.0000        26
    51.0200        24
    51.0400        32
    51.0600        16
    51.0800        22
    51.1000        24
    51.1200        18
    51.1400        16
    51.1600        24
    51.1800        24
    51.2000        22
    51.2200        18
    51.2400        24
    51.2600        18
    51.2800        36
    51.3000        26
    51.3200        22
    51.3400        38
    51.3600        24
    51.3800        28
    51.4000        36
    51.4200        20
    51.4400        28
    51.4600        18
    51.4800        24
    51.5000        28
    51.5200        14
    51.5400        28
    51.5600        24
    51.5800        20
    51.6000        38
    51.6200        26
    51.6400        28
    51.6600        38
    51.6800        30
    51.7000        28
    51.7200        22
    51.7400        38
    51.7600        36
    51.7800        40
    51.8000        46
    51.8200        36
    51.8400        44
    51.8600        42
    51.8800        36
    51.9000        38
    51.9200        44
    51.9400        80
    51.9600        84
    51.9800        80
    52.0000       126
    52.0200       152
    52.0400       208
    52.0600       280
    52.0800       290
    52.1000       292
    52.1200       340
    52.1400       300
    52.1600       302
    52.1800       296
    52.2000       254
    52.2200       226
    52.2400       222
    52.2600       214
    52.2800       182
    52.3000       152
    52.3200       130
    52.3400       110
    52.3600        88
    52.3800        78
    52.4000        56
    52.4200        42
    52.4400        46
    52.4600        38
    52.4800        30
    52.5000        38
    52.5200        34
    52.5400        26
    52.5600        32
    52.5800        24
    52.6000        38
    52.6200        30
    52.6400        18
    52.6600        18
    52.6800        38
    52.7000        32
    52.7200        26
    52.7400        20
    52.7600        26
    52.7800        14
    52.8000        28
    52.8200        30
    52.8400        28
    52.8600        32
    52.8800        18
    52.9000        14
    52.9200        36
    52.9400        24
    52.9600        30
    52.9800        22
    53.0000        18
    53.0200        26
    53.0400        26
    53.0600        14
    53.0800        18
    53.1000        20
    53.1200        20
    53.1400        26
    53.1600        20
    53.1800        26
    53.2000        20
    53.2200        30
    53.2400        18
    53.2600        26
    53.2800        22
    53.3000        16
    53.3200        20
    53.3400        20
    53.3600        22
    53.3800        20
    53.4000        22
    53.4200        22
    53.4400        22
    53.4600        16
    53.4800        20
    53.5000        26
    53.5200        16
    53.5400        20
    53.5600        24
    53.5800        24
    53.6000        22
    53.6200        30
    53.6400        20
    53.6600        26
    53.6800        28
    53.7000        20
    53.7200        22
    53.7400        16
    53.7600        14
    53.7800        24
    53.8000        26
    53.8200        28
    53.8400        22
    53.8600        28
    53.8800        16
    53.9000        20
    53.9200        22
    53.9400        24
    53.9600        18
    53.9800        22
    54.0000        24
    54.0200        26
    54.0400        24
    54.0600        20
    54.0800        20
    54.1000        28
    54.1200        12
    54.1400        20
    54.1600        24
    54.1800        28
    54.2000        24
    54.2200        20
    54.2400        18
    54.2600        22
    54.2800        18
    54.3000        16
    54.3200        24
    54.3400        24
    54.3600        24
    54.3800        24
    54.4000        20
    54.4200        22
    54.4400        26
    54.4600        18
    54.4800        26
    54.5000        18
    54.5200        10
    54.5400        28
    54.5600        22
    54.5800        30
    54.6000        42
    54.6200        28
    54.6400        34
    54.6600        42
    54.6800        28
    54.7000        42
    54.7200        36
    54.7400        26
    54.7600        38
    54.7800        22
    54.8000        38
    54.8200        32
    54.8400        28
    54.8600        34
    54.8800        28
    54.9000        30
    54.9200        34
    54.9400        36
    54.9600        14
    54.9800        28
    55.0000        34
    55.0200        28
    55.0400        20
    55.0600        22
    55.0800        24
    55.1000        24
    55.1200        24
    55.1400        18
    55.1600        30
    55.1800        30
    55.2000        32
    55.2200        28
    55.2400        30
    55.2600        24
    55.2800        22
    55.3000        32
    55.3200        30
    55.3400        30
    55.3600        26
    55.3800        24
    55.4000        42
    55.4200        30
    55.4400        42
    55.4600        50
    55.4800        74
    55.5000        72
    55.5200        96
    55.5400       112
    55.5600        92
    55.5800        96
    55.6000        72
    55.6200        78
    55.6400        92
    55.6600        84
    55.6800        62
    55.7000        76
    55.7200        70
    55.7400        50
    55.7600        52
    55.7800        56
    55.8000        40
    55.8200        34
    55.8400        30
    55.8600        28
    55.8800        30
    55.9000        38
    55.9200        20
    55.9400        34
    55.9600        34
    55.9800        18
    56.0000        34
    56.0200        26
    56.0400        28
    56.0600        20
    56.0800        22
    56.1000        20
    56.1200        24
    56.1400        18
    56.1600        20
    56.1800        22
    56.2000        16
    56.2200        20
    56.2400        26
    56.2600        20
    56.2800        28
    56.3000        28
    56.3200        24
    56.3400        22
    56.3600        24
    56.3800        22
    56.4000        30
    56.4200        22
    56.4400        22
    56.4600        18
    56.4800        20
    56.5000        22
    56.5200        18
    56.5400        26
    56.5600        16
    56.5800        38
    56.6000        18
    56.6200        24
    56.6400        28
    56.6600        26
    56.6800        28
    56.7000        22
    56.7200        32
    56.7400        22
    56.7600        20
    56.7800        26
    56.8000        20
    56.8200        18
    56.8400        20
    56.8600        24
    56.8800        24
    56.9000        28
    56.9200        16
    56.9400        32
    56.9600        18
    56.9800        18
    57.0000        28
    57.0200        26
    57.0400        24
    57.0600        24
    57.0800        22
    57.1000        20
    57.1200        30
    57.1400        16
    57.1600        20
    57.1800        32
    57.2000        24
    57.2200        16
    57.2400        22
    57.2600        32
    57.2800        20
    57.3000        24
    57.3200        20
    57.3400        22
    57.3600        20
    57.3800        26
    57.4000        24
    57.4200        20
    57.4400        26
    57.4600        22
    57.4800        28
    57.5000        22
    57.5200        26
    57.5400        18
    57.5600        22
    57.5800        22
    57.6000        24
    57.6200        26
    57.6400        24
    57.6600        26
    57.6800        32
    57.7000        24
    57.7200        26
    57.7400        22
    57.7600        32
    57.7800        26
    57.8000        16
    57.8200        16
    57.8400        42
    57.8600        24
    57.8800        24
    57.9000        20
    57.9200        14
    57.9400        26
    57.9600        12
    57.9800        26
    58.0000        24
    58.0200        20
    58.0400        22
    58.0600        22
    58.0800        24
    58.1000        22
    58.1200        20
    58.1400        24
    58.1600        18
    58.1800        24
    58.2000        28
    58.2200        22
    58.2400        22
    58.2600        22
    58.2800        28
    58.3000        30
    58.3200        24
    58.3400        16
    58.3600        26
    58.3800        26
    58.4000        18
    58.4200        26
    58.4400        26
    58.4600        24
    58.4800        28
    58.5000        22
    58.5200        28
    58.5400        32
    58.5600        28
    58.5800        28
    58.6000        28
    58.6200        30
    58.6400        24
    58.6600        28
    58.6800        30
    58.7000        28
    58.7200        60
    58.7400        44
    58.7600        56
    58.7800        68
    58.8000        86
    58.8200        80
    58.8400        94
    58.8600        80
    58.8800       114
    58.9000       104
    58.9200       102
    58.9400        78
    58.9600        64
    58.9800        84
    59.0000        82
    59.0200        82
    59.0400        74
    59.0600        54
    59.0800        66
    59.1000        56
    59.1200        56
    59.1400        42
    59.1600        42
    59.1800        50
    59.2000        42
    59.2200        34
    59.2400        36
    59.2600        40
    59.2800        24
    59.3000        24
    59.3200        34
    59.3400        34
    59.3600        28
    59.3800        36
    59.4000        22
    59.4200        34
    59.4400        26
    59.4600        32
    59.4800        26
    59.5000        32
    59.5200        22
    59.5400        40
    59.5600        20
    59.5800        22
    59.6000        26
    59.6200        26
    59.6400        32
    59.6600        18
    59.6800        22
    59.7000        22
    59.7200        20
    59.7400        24
    59.7600        36
    59.7800        20
    59.8000        24
    59.8200        28
    59.8400        30
    59.8600        26
    59.8800        30
    59.9000        30
    59.9200        24
    59.9400        24
    59.9600        20
    59.9800        28
    60.0000        20
    60.0200        26
    60.0400        24
    60.0600        28
    60.0800        28
    60.1000        18
    60.1200        24
    60.1400        24
    60.1600        28
    60.1800        32
    60.2000        22
    60.2200        22
    60.2400        30
    60.2600        22
    60.2800        36
    60.3000        18
    60.3200        34
    60.3400        20
    60.3600        18
    60.3800        22
    60.4000        24
    60.4200        12
    60.4400        36
    60.4600        24
    60.4800        24
    60.5000        36
    60.5200        18
    60.5400        18
    60.5600        22
    60.5800        32
    60.6000        12
    60.6200        14
    60.6400        20
    60.6600        30
    60.6800        38
    60.7000        24
    60.7200        26
    60.7400        16
    60.7600        22
    60.7800        30
    60.8000        30
    60.8200        32
    60.8400        16
    60.8600        24
    60.8800        28
    60.9000        28
    60.9200        30
    60.9400        30
    60.9600        22
    60.9800        20
    61.0000        22
    61.0200        26
    61.0400        24
    61.0600        38
    61.0800        38
    61.1000        28
    61.1200        42
    61.1400        44
    61.1600        48
    61.1800        62
    61.2000        52
    61.2200        66
    61.2400        66
    61.2600        52
    61.2800        72
    61.3000        66
    61.3200        68
    61.3400        60
    61.3600        58
    61.3800        60
    61.4000        50
    61.4200        54
    61.4400        58
    61.4600        58
    61.4800        48
    61.5000        48
    61.5200        30
    61.5400        46
    61.5600        36
    61.5800        38
    61.6000        34
    61.6200        30
    61.6400        36
    61.6600        30
    61.6800        44
    61.7000        38
    61.7200        38
    61.7400        38
    61.7600        36
    61.7800        46
    61.8000        46
    61.8200        52
    61.8400        58
    61.8600        46
    61.8800        60
    61.9000        64
    61.9200        90
    61.9400       114
    61.9600       142
    61.9800       200
    62.0000       228
    62.0200       250
    62.0400       266
    62.0600       288
    62.0800       274
    62.1000       262
    62.1200       282
    62.1400       246
    62.1600       234
    62.1800       254
    62.2000       236
    62.2200       212
    62.2400       228
    62.2600       196
    62.2800       176
    62.3000       158
    62.3200       136
    62.3400       122
    62.3600       110
    62.3800       104
    62.4000        76
    62.4200        62
    62.4400        64
    62.4600        62
    62.4800        48
    62.5000        56
    62.5200        48
    62.5400        40
    62.5600        58
    62.5800        32
    62.6000        38
    62.6200        48
    62.6400        36
    62.6600        40
    62.6800        34
    62.7000        42
    62.7200        32
    62.7400        36
    62.7600        42
    62.7800        34
    62.8000        36
    62.8200        38
    62.8400        38
    62.8600        40
    62.8800        30
    62.9000        24
    62.9200        24
    62.9400        38
    62.9600        34
    62.9800        16
    63.0000        30
    63.0200        32
    63.0400        26
    63.0600        44
    63.0800        18
    63.1000        32
    63.1200        30
    63.1400        28
    63.1600        26
    63.1800        30
    63.2000        34
    63.2200        26
    63.2400        34
    63.2600        32
    63.2800        40
    63.3000        26
    63.3200        28
    63.3400        24
    63.3600        24
    63.3800        30
    63.4000        34
    63.4200        18
    63.4400        18
    63.4600        22
    63.4800        20
    63.5000        22
    63.5200        18
    63.5400        26
    63.5600        18
    63.5800        22
    63.6000        18
    63.6200        22
    63.6400        26
    63.6600        10
    63.6800        20
    63.7000        24
    63.7200        18
    63.7400        28
    63.7600        20
    63.7800        22
    63.8000        26
    63.8200        22
    63.8400        28
    63.8600        30
    63.8800        22
    63.9000        28
    63.9200        20
    63.9400        30
    63.9600        22
    63.9800        22
    64.0000        22
    64.0200        32
    64.0400        32
    64.0600        32
    64.0800        26
    64.1000        30
    64.1200        26
    64.1400        26
    64.1600        18
    64.1800        30
    64.2000        20
    64.2200        26
    64.2400        26
    64.2600        18
    64.2800        28
    64.3000        22
    64.3200        14
    64.3400        26
    64.3600        22
    64.3800        34
    64.4000        30
    64.4200        26
    64.4400        18
    64.4600        30
    64.4800        18
    64.5000        22
    64.5200        28
    64.5400        22
    64.5600        24
    64.5800        20
    64.6000        18
    64.6200        14
    64.6400        24
    64.6600        24
    64.6800        12
    64.7000        12
    64.7200        18
    64.7400        28
    64.7600        24
    64.7800        20
    64.8000        24
    64.8200        24
    64.8400        20
    64.8600        28
    64.8800        20
    64.9000        22
    64.9200        22
    64.9400        24
    64.9600        14
    64.9800        32
    65.0000        34
