/////////////////////////////////////////////////////////////////////////////////
/// Profile Data Ascii Dump (XRD)                                             ///
/////////////////////////////////////////////////////////////////////////////////

  Group     : Swayze
  Data      : GDS33
  File Name : GDS33.RAW

# Profile Datafile
          comment             = Europium Oxide 
          date & time         = 08-03-25 06:53:08 

# Measurement Condition
    X-ray tube
          target              = Cu 
          voltage             = 40.0 (kV)
          current             = 30.0 (mA)
    Slits
          divergence slit     = 2.00000 (deg) 
          scatter slit        = 2.00000 (deg) 
          receiving slit      = 0.15000 (mm)  
    Scanning
          drive axis          = Theta-2Theta 
          scan range          =    4.000 -   65.000 
          scan mode           = Continuous Scan 
          scan speed          =   2.0000 (deg/min) 
          sampling pitch      =   0.0200 (deg) 
          preset time         =   0.60 (sec) 

# Data      [ Total No. = 3051 ]
  <2Theta>   <   I   >
     4.0000       174
     4.0200       182
     4.0400       176
     4.0600       154
     4.0800       200
     4.1000       166
     4.1200       190
     4.1400       188
     4.1600       166
     4.1800       160
     4.2000       178
     4.2200       176
     4.2400       182
     4.2600       170
     4.2800       150
     4.3000       170
     4.3200       172
     4.3400       166
     4.3600       172
     4.3800       172
     4.4000       156
     4.4200       132
     4.4400       176
     4.4600       174
     4.4800       168
     4.5000       154
     4.5200       162
     4.5400       160
     4.5600       174
     4.5800       154
     4.6000       146
     4.6200       154
     4.6400       150
     4.6600       138
     4.6800       134
     4.7000       162
     4.7200       156
     4.7400       158
     4.7600       166
     4.7800       150
     4.8000       158
     4.8200       148
     4.8400       136
     4.8600       142
     4.8800       152
     4.9000       152
     4.9200       158
     4.9400       142
     4.9600       150
     4.9800       142
     5.0000       146
     5.0200       160
     5.0400       154
     5.0600       144
     5.0800       150
     5.1000       160
     5.1200       148
     5.1400       146
     5.1600       140
     5.1800       150
     5.2000       166
     5.2200       138
     5.2400       146
     5.2600       158
     5.2800       156
     5.3000       144
     5.3200       162
     5.3400       158
     5.3600       152
     5.3800       144
     5.4000       142
     5.4200       166
     5.4400       146
     5.4600       154
     5.4800       158
     5.5000       138
     5.5200       158
     5.5400       146
     5.5600       138
     5.5800       140
     5.6000       158
     5.6200       140
     5.6400       164
     5.6600       154
     5.6800       156
     5.7000       154
     5.7200       152
     5.7400       162
     5.7600       138
     5.7800       144
     5.8000       180
     5.8200       144
     5.8400       164
     5.8600       162
     5.8800       150
     5.9000       154
     5.9200       140
     5.9400       164
     5.9600       156
     5.9800       126
     6.0000       166
     6.0200       150
     6.0400       152
     6.0600       144
     6.0800       130
     6.1000       164
     6.1200       114
     6.1400       134
     6.1600       136
     6.1800       146
     6.2000       148
     6.2200       124
     6.2400       164
     6.2600       136
     6.2800       134
     6.3000       140
     6.3200       114
     6.3400       128
     6.3600       116
     6.3800       154
     6.4000       132
     6.4200       130
     6.4400       134
     6.4600       156
     6.4800       118
     6.5000       154
     6.5200       122
     6.5400       114
     6.5600       138
     6.5800       150
     6.6000       122
     6.6200       120
     6.6400       112
     6.6600       128
     6.6800       102
     6.7000       130
     6.7200       124
     6.7400       128
     6.7600       130
     6.7800       154
     6.8000       122
     6.8200       140
     6.8400       110
     6.8600        92
     6.8800       124
     6.9000       120
     6.9200       138
     6.9400       126
     6.9600       120
     6.9800        96
     7.0000       146
     7.0200       122
     7.0400       120
     7.0600       108
     7.0800       136
     7.1000       110
     7.1200       116
     7.1400       110
     7.1600       100
     7.1800       110
     7.2000       110
     7.2200       100
     7.2400       110
     7.2600       114
     7.2800       112
     7.3000       100
     7.3200       120
     7.3400        94
     7.3600       126
     7.3800       122
     7.4000       110
     7.4200       100
     7.4400       110
     7.4600        98
     7.4800       108
     7.5000       100
     7.5200       126
     7.5400       126
     7.5600       106
     7.5800        94
     7.6000       106
     7.6200       116
     7.6400       110
     7.6600        94
     7.6800       102
     7.7000        94
     7.7200       102
     7.7400       118
     7.7600        98
     7.7800       108
     7.8000       108
     7.8200       110
     7.8400       106
     7.8600       112
     7.8800       114
     7.9000       104
     7.9200       116
     7.9400        90
     7.9600       104
     7.9800       110
     8.0000       118
     8.0200       116
     8.0400       134
     8.0600       104
     8.0800       108
     8.1000        98
     8.1200       114
     8.1400       104
     8.1600       118
     8.1800       108
     8.2000       118
     8.2200        86
     8.2400        86
     8.2600       112
     8.2800       106
     8.3000       114
     8.3200       104
     8.3400       112
     8.3600       126
     8.3800       118
     8.4000        96
     8.4200       114
     8.4400        98
     8.4600       122
     8.4800       116
     8.5000       120
     8.5200       108
     8.5400       106
     8.5600       108
     8.5800       116
     8.6000       120
     8.6200       100
     8.6400       116
     8.6600       118
     8.6800        90
     8.7000       112
     8.7200       112
     8.7400       108
     8.7600       132
     8.7800        90
     8.8000        90
     8.8200        82
     8.8400       108
     8.8600       120
     8.8800       124
     8.9000       116
     8.9200        94
     8.9400        96
     8.9600       100
     8.9800       106
     9.0000       108
     9.0200        96
     9.0400        96
     9.0600       114
     9.0800       112
     9.1000       104
     9.1200        98
     9.1400       104
     9.1600       132
     9.1800       110
     9.2000       108
     9.2200       108
     9.2400        90
     9.2600        96
     9.2800        90
     9.3000       120
     9.3200       108
     9.3400        80
     9.3600       112
     9.3800        86
     9.4000        96
     9.4200       108
     9.4400       106
     9.4600       106
     9.4800       122
     9.5000       100
     9.5200       102
     9.5400       106
     9.5600       118
     9.5800       104
     9.6000        98
     9.6200       106
     9.6400       104
     9.6600       106
     9.6800       124
     9.7000       126
     9.7200       104
     9.7400       102
     9.7600       108
     9.7800        98
     9.8000       102
     9.8200        96
     9.8400        92
     9.8600       100
     9.8800       102
     9.9000       100
     9.9200        90
     9.9400        82
     9.9600       100
     9.9800       106
    10.0000        82
    10.0200        94
    10.0400       138
    10.0600       112
    10.0800        86
    10.1000       102
    10.1200       116
    10.1400       102
    10.1600       110
    10.1800        94
    10.2000        96
    10.2200       112
    10.2400        98
    10.2600        94
    10.2800        82
    10.3000        94
    10.3200        84
    10.3400        84
    10.3600        90
    10.3800        90
    10.4000        90
    10.4200        72
    10.4400        98
    10.4600        86
    10.4800        96
    10.5000        92
    10.5200        88
    10.5400        84
    10.5600        90
    10.5800        90
    10.6000        86
    10.6200        86
    10.6400       106
    10.6600       102
    10.6800        88
    10.7000        90
    10.7200        96
    10.7400        90
    10.7600       104
    10.7800       116
    10.8000        82
    10.8200        86
    10.8400        78
    10.8600        90
    10.8800        84
    10.9000        70
    10.9200        88
    10.9400        74
    10.9600        72
    10.9800        88
    11.0000        80
    11.0200        90
    11.0400       108
    11.0600        86
    11.0800        82
    11.1000        92
    11.1200        76
    11.1400        96
    11.1600        96
    11.1800        74
    11.2000        80
    11.2200        78
    11.2400        84
    11.2600        86
    11.2800        82
    11.3000        88
    11.3200        94
    11.3400        90
    11.3600        78
    11.3800        84
    11.4000       100
    11.4200        78
    11.4400        76
    11.4600        72
    11.4800        88
    11.5000        70
    11.5200        82
    11.5400        74
    11.5600        68
    11.5800        88
    11.6000        76
    11.6200        56
    11.6400        84
    11.6600        78
    11.6800        58
    11.7000        56
    11.7200        62
    11.7400        78
    11.7600        74
    11.7800        72
    11.8000        84
    11.8200        76
    11.8400        70
    11.8600        84
    11.8800        74
    11.9000        84
    11.9200        74
    11.9400        68
    11.9600        84
    11.9800        58
    12.0000        72
    12.0200        74
    12.0400        68
    12.0600        72
    12.0800        70
    12.1000        68
    12.1200        60
    12.1400        58
    12.1600        62
    12.1800        66
    12.2000        82
    12.2200        70
    12.2400        50
    12.2600        76
    12.2800        78
    12.3000        74
    12.3200        94
    12.3400        84
    12.3600        72
    12.3800        70
    12.4000        90
    12.4200        76
    12.4400        78
    12.4600        70
    12.4800        78
    12.5000        88
    12.5200        76
    12.5400        66
    12.5600        66
    12.5800        42
    12.6000        52
    12.6200        76
    12.6400        66
    12.6600        62
    12.6800        68
    12.7000        60
    12.7200        82
    12.7400        86
    12.7600        88
    12.7800        80
    12.8000        72
    12.8200        82
    12.8400        64
    12.8600        64
    12.8800        78
    12.9000        82
    12.9200        62
    12.9400        82
    12.9600        62
    12.9800        78
    13.0000        78
    13.0200        66
    13.0400        78
    13.0600        58
    13.0800        80
    13.1000        74
    13.1200        72
    13.1400        62
    13.1600        72
    13.1800        66
    13.2000        80
    13.2200        60
    13.2400        60
    13.2600        80
    13.2800        58
    13.3000        66
    13.3200        72
    13.3400        60
    13.3600        74
    13.3800        80
    13.4000        60
    13.4200        60
    13.4400        62
    13.4600        66
    13.4800        60
    13.5000        62
    13.5200        66
    13.5400        76
    13.5600        58
    13.5800        58
    13.6000        72
    13.6200        66
    13.6400        64
    13.6600        66
    13.6800        68
    13.7000        68
    13.7200        62
    13.7400        74
    13.7600        78
    13.7800        64
    13.8000        74
    13.8200        66
    13.8400        60
    13.8600        76
    13.8800        80
    13.9000        72
    13.9200        46
    13.9400        56
    13.9600        64
    13.9800        66
    14.0000        52
    14.0200        56
    14.0400        56
    14.0600        76
    14.0800        62
    14.1000        74
    14.1200        70
    14.1400        56
    14.1600        48
    14.1800        72
    14.2000        76
    14.2200        66
    14.2400        70
    14.2600        62
    14.2800        62
    14.3000        60
    14.3200        66
    14.3400        68
    14.3600        58
    14.3800        60
    14.4000        48
    14.4200        50
    14.4400        56
    14.4600        50
    14.4800        60
    14.5000        58
    14.5200        72
    14.5400        48
    14.5600        70
    14.5800        74
    14.6000        54
    14.6200        54
    14.6400        58
    14.6600        56
    14.6800        66
    14.7000        66
    14.7200        78
    14.7400        78
    14.7600        52
    14.7800        62
    14.8000        62
    14.8200        72
    14.8400        56
    14.8600        70
    14.8800        80
    14.9000        70
    14.9200        78
    14.9400        70
    14.9600        68
    14.9800        58
    15.0000        78
    15.0200        76
    15.0400        60
    15.0600        56
    15.0800        62
    15.1000        56
    15.1200        58
    15.1400        72
    15.1600        64
    15.1800        54
    15.2000        66
    15.2200        68
    15.2400        52
    15.2600        66
    15.2800        76
    15.3000        54
    15.3200        56
    15.3400        88
    15.3600        70
    15.3800        54
    15.4000        54
    15.4200        64
    15.4400        68
    15.4600        72
    15.4800        62
    15.5000        62
    15.5200        68
    15.5400        48
    15.5600        70
    15.5800        82
    15.6000        54
    15.6200        92
    15.6400        68
    15.6600        64
    15.6800        88
    15.7000        64
    15.7200        64
    15.7400        40
    15.7600        46
    15.7800        70
    15.8000        72
    15.8200        68
    15.8400        64
    15.8600        64
    15.8800        64
    15.9000        76
    15.9200        74
    15.9400        58
    15.9600        52
    15.9800        48
    16.0000        78
    16.0200        60
    16.0400        58
    16.0600        74
    16.0800        60
    16.1000        60
    16.1200        56
    16.1400        66
    16.1600        54
    16.1800        56
    16.2000        40
    16.2200        62
    16.2400        50
    16.2600        78
    16.2800        56
    16.3000        48
    16.3200        60
    16.3400        54
    16.3600        58
    16.3800        72
    16.4000        50
    16.4200        44
    16.4400        52
    16.4600        66
    16.4800        56
    16.5000        54
    16.5200        52
    16.5400        48
    16.5600        54
    16.5800        42
    16.6000        52
    16.6200        46
    16.6400        58
    16.6600        56
    16.6800        50
    16.7000        50
    16.7200        52
    16.7400        60
    16.7600        54
    16.7800        56
    16.8000        44
    16.8200        46
    16.8400        60
    16.8600        66
    16.8800        46
    16.9000        54
    16.9200        48
    16.9400        50
    16.9600        56
    16.9800        52
    17.0000        44
    17.0200        64
    17.0400        46
    17.0600        50
    17.0800        36
    17.1000        54
    17.1200        40
    17.1400        62
    17.1600        44
    17.1800        54
    17.2000        50
    17.2200        58
    17.2400        52
    17.2600        54
    17.2800        48
    17.3000        40
    17.3200        48
    17.3400        64
    17.3600        54
    17.3800        64
    17.4000        50
    17.4200        52
    17.4400        62
    17.4600        62
    17.4800        36
    17.5000        44
    17.5200        44
    17.5400        50
    17.5600        42
    17.5800        56
    17.6000        58
    17.6200        56
    17.6400        54
    17.6600        54
    17.6800        50
    17.7000        62
    17.7200        50
    17.7400        66
    17.7600        58
    17.7800        50
    17.8000        62
    17.8200        42
    17.8400        58
    17.8600        44
    17.8800        58
    17.9000        62
    17.9200        44
    17.9400        42
    17.9600        42
    17.9800        46
    18.0000        60
    18.0200        58
    18.0400        44
    18.0600        60
    18.0800        52
    18.1000        48
    18.1200        50
    18.1400        46
    18.1600        50
    18.1800        58
    18.2000        52
    18.2200        48
    18.2400        50
    18.2600        40
    18.2800        52
    18.3000        44
    18.3200        42
    18.3400        62
    18.3600        42
    18.3800        40
    18.4000        52
    18.4200        38
    18.4400        46
    18.4600        46
    18.4800        74
    18.5000        40
    18.5200        54
    18.5400        46
    18.5600        48
    18.5800        54
    18.6000        50
    18.6200        40
    18.6400        52
    18.6600        56
    18.6800        54
    18.7000        60
    18.7200        56
    18.7400        54
    18.7600        54
    18.7800        52
    18.8000        36
    18.8200        44
    18.8400        54
    18.8600        50
    18.8800        50
    18.9000        48
    18.9200        40
    18.9400        42
    18.9600        50
    18.9800        30
    19.0000        42
    19.0200        46
    19.0400        52
    19.0600        56
    19.0800        48
    19.1000        38
    19.1200        44
    19.1400        34
    19.1600        52
    19.1800        52
    19.2000        42
    19.2200        48
    19.2400        44
    19.2600        44
    19.2800        48
    19.3000        64
    19.3200        42
    19.3400        64
    19.3600        60
    19.3800        46
    19.4000        50
    19.4200        54
    19.4400        66
    19.4600        54
    19.4800        54
    19.5000        54
    19.5200        46
    19.5400        50
    19.5600        62
    19.5800        58
    19.6000        58
    19.6200        54
    19.6400        50
    19.6600        54
    19.6800        50
    19.7000        46
    19.7200        62
    19.7400        60
    19.7600        74
    19.7800        56
    19.8000        72
    19.8200        72
    19.8400        78
    19.8600        82
    19.8800        78
    19.9000        96
    19.9200        82
    19.9400       102
    19.9600       102
    19.9800        90
    20.0000        92
    20.0200        82
    20.0400        74
    20.0600        66
    20.0800        60
    20.1000        80
    20.1200        58
    20.1400        48
    20.1600        58
    20.1800        62
    20.2000        52
    20.2200        50
    20.2400        56
    20.2600        38
    20.2800        60
    20.3000        38
    20.3200        48
    20.3400        38
    20.3600        34
    20.3800        62
    20.4000        48
    20.4200        44
    20.4400        36
    20.4600        38
    20.4800        56
    20.5000        46
    20.5200        40
    20.5400        28
    20.5600        44
    20.5800        38
    20.6000        50
    20.6200        38
    20.6400        42
    20.6600        54
    20.6800        48
    20.7000        60
    20.7200        60
    20.7400        44
    20.7600        44
    20.7800        54
    20.8000        44
    20.8200        56
    20.8400        66
    20.8600        58
    20.8800        40
    20.9000        56
    20.9200        68
    20.9400        54
    20.9600        52
    20.9800        40
    21.0000        30
    21.0200        42
    21.0400        40
    21.0600        48
    21.0800        52
    21.1000        52
    21.1200        50
    21.1400        50
    21.1600        58
    21.1800        42
    21.2000        46
    21.2200        58
    21.2400        54
    21.2600        46
    21.2800        48
    21.3000        48
    21.3200        60
    21.3400        50
    21.3600        54
    21.3800        54
    21.4000        52
    21.4200        34
    21.4400        48
    21.4600        58
    21.4800        42
    21.5000        36
    21.5200        66
    21.5400        48
    21.5600        46
    21.5800        50
    21.6000        50
    21.6200        64
    21.6400        42
    21.6600        58
    21.6800        56
    21.7000        56
    21.7200        56
    21.7400        60
    21.7600        50
    21.7800        62
    21.8000        36
    21.8200        60
    21.8400        64
    21.8600        68
    21.8800        48
    21.9000        58
    21.9200        54
    21.9400        64
    21.9600        60
    21.9800        52
    22.0000        76
    22.0200        68
    22.0400        64
    22.0600        58
    22.0800        74
    22.1000        76
    22.1200        70
    22.1400        66
    22.1600        66
    22.1800        72
    22.2000        86
    22.2200        52
    22.2400        70
    22.2600        66
    22.2800        68
    22.3000        70
    22.3200        86
    22.3400        64
    22.3600        74
    22.3800        64
    22.4000        68
    22.4200        62
    22.4400        70
    22.4600        48
    22.4800        48
    22.5000        54
    22.5200        54
    22.5400        58
    22.5600        66
    22.5800        64
    22.6000        52
    22.6200        58
    22.6400        52
    22.6600        60
    22.6800        54
    22.7000        44
    22.7200        46
    22.7400        52
    22.7600        44
    22.7800        52
    22.8000        42
    22.8200        66
    22.8400        44
    22.8600        56
    22.8800        36
    22.9000        34
    22.9200        46
    22.9400        60
    22.9600        44
    22.9800        48
    23.0000        50
    23.0200        34
    23.0400        52
    23.0600        38
    23.0800        36
    23.1000        44
    23.1200        50
    23.1400        46
    23.1600        30
    23.1800        48
    23.2000        48
    23.2200        42
    23.2400        42
    23.2600        34
    23.2800        42
    23.3000        42
    23.3200        38
    23.3400        30
    23.3600        30
    23.3800        32
    23.4000        34
    23.4200        44
    23.4400        44
    23.4600        34
    23.4800        48
    23.5000        46
    23.5200        40
    23.5400        48
    23.5600        30
    23.5800        42
    23.6000        44
    23.6200        42
    23.6400        40
    23.6600        32
    23.6800        32
    23.7000        34
    23.7200        48
    23.7400        40
    23.7600        40
    23.7800        32
    23.8000        32
    23.8200        22
    23.8400        40
    23.8600        36
    23.8800        34
    23.9000        40
    23.9200        46
    23.9400        30
    23.9600        42
    23.9800        42
    24.0000        44
    24.0200        48
    24.0400        30
    24.0600        44
    24.0800        38
    24.1000        38
    24.1200        18
    24.1400        34
    24.1600        38
    24.1800        42
    24.2000        32
    24.2200        48
    24.2400        44
    24.2600        46
    24.2800        42
    24.3000        38
    24.3200        38
    24.3400        42
    24.3600        40
    24.3800        24
    24.4000        32
    24.4200        52
    24.4400        26
    24.4600        42
    24.4800        46
    24.5000        50
    24.5200        46
    24.5400        34
    24.5600        48
    24.5800        54
    24.6000        36
    24.6200        42
    24.6400        52
    24.6600        38
    24.6800        34
    24.7000        40
    24.7200        38
    24.7400        14
    24.7600        34
    24.7800        40
    24.8000        36
    24.8200        28
    24.8400        46
    24.8600        34
    24.8800        36
    24.9000        30
    24.9200        32
    24.9400        58
    24.9600        44
    24.9800        44
    25.0000        28
    25.0200        36
    25.0400        38
    25.0600        34
    25.0800        38
    25.1000        40
    25.1200        42
    25.1400        40
    25.1600        42
    25.1800        38
    25.2000        42
    25.2200        38
    25.2400        38
    25.2600        48
    25.2800        30
    25.3000        36
    25.3200        42
    25.3400        42
    25.3600        40
    25.3800        42
    25.4000        54
    25.4200        40
    25.4400        62
    25.4600        38
    25.4800        36
    25.5000        54
    25.5200        40
    25.5400        38
    25.5600        42
    25.5800        38
    25.6000        40
    25.6200        44
    25.6400        46
    25.6600        30
    25.6800        52
    25.7000        36
    25.7200        46
    25.7400        42
    25.7600        46
    25.7800        36
    25.8000        54
    25.8200        50
    25.8400        28
    25.8600        34
    25.8800        32
    25.9000        42
    25.9200        36
    25.9400        42
    25.9600        46
    25.9800        36
    26.0000        32
    26.0200        46
    26.0400        36
    26.0600        38
    26.0800        44
    26.1000        44
    26.1200        52
    26.1400        44
    26.1600        40
    26.1800        46
    26.2000        50
    26.2200        30
    26.2400        34
    26.2600        40
    26.2800        50
    26.3000        46
    26.3200        60
    26.3400        48
    26.3600        52
    26.3800        50
    26.4000        44
    26.4200        56
    26.4400        48
    26.4600        52
    26.4800        50
    26.5000        46
    26.5200        48
    26.5400        50
    26.5600        52
    26.5800        56
    26.6000        60
    26.6200        56
    26.6400        56
    26.6600        56
    26.6800        46
    26.7000        64
    26.7200        56
    26.7400        72
    26.7600        60
    26.7800        58
    26.8000        52
    26.8200        68
    26.8400        76
    26.8600        56
    26.8800        72
    26.9000        84
    26.9200        60
    26.9400        70
    26.9600        90
    26.9800        94
    27.0000        70
    27.0200       120
    27.0400        86
    27.0600        96
    27.0800       102
    27.1000       116
    27.1200       108
    27.1400       124
    27.1600       112
    27.1800       104
    27.2000       120
    27.2200       100
    27.2400       114
    27.2600       116
    27.2800       128
    27.3000       122
    27.3200       134
    27.3400       126
    27.3600       116
    27.3800       122
    27.4000       118
    27.4200       112
    27.4400       124
    27.4600       128
    27.4800       146
    27.5000       138
    27.5200       128
    27.5400       146
    27.5600       134
    27.5800       158
    27.6000       116
    27.6200       140
    27.6400       124
    27.6600       114
    27.6800       144
    27.7000       140
    27.7200       138
    27.7400       104
    27.7600       134
    27.7800       140
    27.8000       146
    27.8200       120
    27.8400       164
    27.8600       130
    27.8800       122
    27.9000       132
    27.9200       152
    27.9400       178
    27.9600       162
    27.9800       170
    28.0000       170
    28.0200       190
    28.0400       202
    28.0600       212
    28.0800       228
    28.1000       224
    28.1200       280
    28.1400       294
    28.1600       310
    28.1800       370
    28.2000       378
    28.2200       382
    28.2400       508
    28.2600       488
    28.2800       592
    28.3000       666
    28.3200       666
    28.3400       688
    28.3600       736
    28.3800       810
    28.4000       694
    28.4200       594
    28.4400       614
    28.4600       550
    28.4800       490
    28.5000       418
    28.5200       350
    28.5400       306
    28.5600       260
    28.5800       184
    28.6000       200
    28.6200       156
    28.6400       152
    28.6600       122
    28.6800       122
    28.7000       110
    28.7200       114
    28.7400        96
    28.7600        86
    28.7800        92
    28.8000        70
    28.8200        78
    28.8400        58
    28.8600        78
    28.8800        76
    28.9000        62
    28.9200        54
    28.9400        62
    28.9600        56
    28.9800        68
    29.0000        54
    29.0200        70
    29.0400        64
    29.0600        62
    29.0800        60
    29.1000        66
    29.1200        70
    29.1400        62
    29.1600        84
    29.1800        56
    29.2000        58
    29.2200        58
    29.2400        46
    29.2600        58
    29.2800        52
    29.3000        58
    29.3200        58
    29.3400        44
    29.3600        52
    29.3800        54
    29.4000        42
    29.4200        58
    29.4400        58
    29.4600        44
    29.4800        52
    29.5000        58
    29.5200        50
    29.5400        58
    29.5600        56
    29.5800        50
    29.6000        52
    29.6200        68
    29.6400        50
    29.6600        52
    29.6800        54
    29.7000        58
    29.7200        50
    29.7400        52
    29.7600        60
    29.7800        68
    29.8000        68
    29.8200        66
    29.8400        56
    29.8600        48
    29.8800        50
    29.9000        54
    29.9200        52
    29.9400        54
    29.9600        66
    29.9800        60
    30.0000        52
    30.0200        56
    30.0400        52
    30.0600        66
    30.0800        54
    30.1000        50
    30.1200        62
    30.1400        52
    30.1600        44
    30.1800        62
    30.2000        44
    30.2200        60
    30.2400        52
    30.2600        50
    30.2800        50
    30.3000        64
    30.3200        64
    30.3400        52
    30.3600        50
    30.3800        66
    30.4000        70
    30.4200        56
    30.4400        64
    30.4600        54
    30.4800        42
    30.5000        48
    30.5200        60
    30.5400        54
    30.5600        54
    30.5800        60
    30.6000        66
    30.6200        56
    30.6400        64
    30.6600        70
    30.6800        62
    30.7000        70
    30.7200        64
    30.7400        62
    30.7600        64
    30.7800        54
    30.8000        74
    30.8200        70
    30.8400        58
    30.8600        58
    30.8800        64
    30.9000        68
    30.9200        78
    30.9400        56
    30.9600        58
    30.9800        56
    31.0000        60
    31.0200        58
    31.0400        50
    31.0600        54
    31.0800        64
    31.1000        56
    31.1200        76
    31.1400        70
    31.1600        78
    31.1800        68
    31.2000        72
    31.2200        70
    31.2400        70
    31.2600        82
    31.2800        68
    31.3000        84
    31.3200        86
    31.3400        90
    31.3600        86
    31.3800        92
    31.4000        98
    31.4200       112
    31.4400        90
    31.4600       104
    31.4800        92
    31.5000        92
    31.5200        90
    31.5400       108
    31.5600        88
    31.5800       108
    31.6000        94
    31.6200       114
    31.6400       114
    31.6600        82
    31.6800        94
    31.7000       100
    31.7200       112
    31.7400        94
    31.7600       100
    31.7800        96
    31.8000       110
    31.8200        90
    31.8400       104
    31.8600        98
    31.8800       124
    31.9000       118
    31.9200       104
    31.9400       100
    31.9600        88
    31.9800       102
    32.0000       102
    32.0200       106
    32.0400        92
    32.0600        88
    32.0800        90
    32.1000       100
    32.1200        88
    32.1400        90
    32.1600       108
    32.1800        92
    32.2000       118
    32.2200       102
    32.2400        92
    32.2600       116
    32.2800        80
    32.3000        96
    32.3200        96
    32.3400        78
    32.3600        86
    32.3800        74
    32.4000       108
    32.4200        96
    32.4400        96
    32.4600        86
    32.4800        94
    32.5000        98
    32.5200        88
    32.5400       102
    32.5600       108
    32.5800       102
    32.6000       112
    32.6200       106
    32.6400       122
    32.6600       132
    32.6800       132
    32.7000       160
    32.7200       154
    32.7400       176
    32.7600       170
    32.7800       210
    32.8000       212
    32.8200       252
    32.8400       230
    32.8600       260
    32.8800       280
    32.9000       250
    32.9200       262
    32.9400       232
    32.9600       210
    32.9800       168
    33.0000       178
    33.0200       166
    33.0400       128
    33.0600       134
    33.0800        94
    33.1000        80
    33.1200        88
    33.1400        84
    33.1600        78
    33.1800        70
    33.2000        70
    33.2200        58
    33.2400        56
    33.2600        42
    33.2800        60
    33.3000        54
    33.3200        68
    33.3400        46
    33.3600        46
    33.3800        44
    33.4000        32
    33.4200        52
    33.4400        46
    33.4600        38
    33.4800        44
    33.5000        58
    33.5200        28
    33.5400        48
    33.5600        52
    33.5800        36
    33.6000        32
    33.6200        32
    33.6400        36
    33.6600        26
    33.6800        40
    33.7000        30
    33.7200        32
    33.7400        34
    33.7600        40
    33.7800        42
    33.8000        42
    33.8200        42
    33.8400        42
    33.8600        30
    33.8800        40
    33.9000        26
    33.9200        26
    33.9400        36
    33.9600        32
    33.9800        24
    34.0000        28
    34.0200        38
    34.0400        26
    34.0600        40
    34.0800        30
    34.1000        32
    34.1200        42
    34.1400        24
    34.1600        32
    34.1800        38
    34.2000        32
    34.2200        38
    34.2400        32
    34.2600        28
    34.2800        40
    34.3000        42
    34.3200        38
    34.3400        36
    34.3600        40
    34.3800        30
    34.4000        26
    34.4200        30
    34.4400        44
    34.4600        46
    34.4800        40
    34.5000        44
    34.5200        34
    34.5400        38
    34.5600        22
    34.5800        32
    34.6000        28
    34.6200        28
    34.6400        40
    34.6600        26
    34.6800        52
    34.7000        38
    34.7200        40
    34.7400        50
    34.7600        48
    34.7800        46
    34.8000        52
    34.8200        52
    34.8400        56
    34.8600        54
    34.8800        54
    34.9000        62
    34.9200        58
    34.9400        76
    34.9600        62
    34.9800        60
    35.0000        64
    35.0200        62
    35.0400        58
    35.0600        56
    35.0800        48
    35.1000        48
    35.1200        52
    35.1400        48
    35.1600        46
    35.1800        48
    35.2000        32
    35.2200        46
    35.2400        34
    35.2600        44
    35.2800        32
    35.3000        44
    35.3200        24
    35.3400        38
    35.3600        36
    35.3800        38
    35.4000        34
    35.4200        34
    35.4400        18
    35.4600        40
    35.4800        26
    35.5000        32
    35.5200        26
    35.5400        30
    35.5600        22
    35.5800        42
    35.6000        32
    35.6200        34
    35.6400        42
    35.6600        28
    35.6800        30
    35.7000        24
    35.7200        36
    35.7400        32
    35.7600        32
    35.7800        20
    35.8000        28
    35.8200        28
    35.8400        18
    35.8600        38
    35.8800        28
    35.9000        34
    35.9200        30
    35.9400        30
    35.9600        32
    35.9800        22
    36.0000        38
    36.0200        34
    36.0400        24
    36.0600        30
    36.0800        30
    36.1000        30
    36.1200        32
    36.1400        32
    36.1600        48
    36.1800        54
    36.2000        32
    36.2200        44
    36.2400        44
    36.2600        20
    36.2800        38
    36.3000        32
    36.3200        42
    36.3400        38
    36.3600        30
    36.3800        22
    36.4000        30
    36.4200        30
    36.4400        24
    36.4600        30
    36.4800        36
    36.5000        24
    36.5200        28
    36.5400        28
    36.5600        38
    36.5800        20
    36.6000        44
    36.6200        30
    36.6400        32
    36.6600        30
    36.6800        46
    36.7000        26
    36.7200        32
    36.7400        28
    36.7600        30
    36.7800        22
    36.8000        36
    36.8200        26
    36.8400        40
    36.8600        32
    36.8800        38
    36.9000        34
    36.9200        36
    36.9400        38
    36.9600        28
    36.9800        34
    37.0000        32
    37.0200        36
    37.0400        48
    37.0600        28
    37.0800        34
    37.1000        28
    37.1200        26
    37.1400        34
    37.1600        28
    37.1800        40
    37.2000        44
    37.2200        28
    37.2400        26
    37.2600        36
    37.2800        34
    37.3000        30
    37.3200        30
    37.3400        24
    37.3600        38
    37.3800        32
    37.4000        26
    37.4200        36
    37.4400        26
    37.4600        34
    37.4800        32
    37.5000        30
    37.5200        38
    37.5400        16
    37.5600        28
    37.5800        24
    37.6000        44
    37.6200        22
    37.6400        18
    37.6600        26
    37.6800        44
    37.7000        26
    37.7200        28
    37.7400        28
    37.7600        22
    37.7800        34
    37.8000        38
    37.8200        26
    37.8400        38
    37.8600        26
    37.8800        36
    37.9000        26
    37.9200        30
    37.9400        28
    37.9600        18
    37.9800        32
    38.0000        38
    38.0200        36
    38.0400        42
    38.0600        26
    38.0800        38
    38.1000        32
    38.1200        40
    38.1400        40
    38.1600        34
    38.1800        42
    38.2000        34
    38.2200        36
    38.2400        28
    38.2600        34
    38.2800        44
    38.3000        36
    38.3200        46
    38.3400        32
    38.3600        30
    38.3800        34
    38.4000        44
    38.4200        52
    38.4400        50
    38.4600        48
    38.4800        42
    38.5000        38
    38.5200        44
    38.5400        48
    38.5600        56
    38.5800        48
    38.6000        60
    38.6200        62
    38.6400        70
    38.6600        62
    38.6800        80
    38.7000        68
    38.7200        74
    38.7400        78
    38.7600        84
    38.7800        82
    38.8000        80
    38.8200        78
    38.8400        90
    38.8600        70
    38.8800        74
    38.9000        74
    38.9200        62
    38.9400        50
    38.9600        72
    38.9800        82
    39.0000        60
    39.0200        66
    39.0400        80
    39.0600        64
    39.0800        66
    39.1000        48
    39.1200        48
    39.1400        62
    39.1600        62
    39.1800        62
    39.2000        60
    39.2200        70
    39.2400        70
    39.2600        68
    39.2800        64
    39.3000        50
    39.3200        66
    39.3400        74
    39.3600        68
    39.3800        62
    39.4000        56
    39.4200        52
    39.4400        52
    39.4600        76
    39.4800        58
    39.5000        56
    39.5200        64
    39.5400        66
    39.5600        60
    39.5800        56
    39.6000        58
    39.6200        44
    39.6400        62
    39.6600        54
    39.6800        62
    39.7000        70
    39.7200        52
    39.7400        44
    39.7600        48
    39.7800        42
    39.8000        48
    39.8200        56
    39.8400        58
    39.8600        54
    39.8800        62
    39.9000        48
    39.9200        34
    39.9400        62
    39.9600        48
    39.9800        46
    40.0000        50
    40.0200        32
    40.0400        58
    40.0600        34
    40.0800        38
    40.1000        36
    40.1200        32
    40.1400        34
    40.1600        42
    40.1800        32
    40.2000        40
    40.2200        40
    40.2400        40
    40.2600        50
    40.2800        34
    40.3000        26
    40.3200        44
    40.3400        38
    40.3600        46
    40.3800        46
    40.4000        40
    40.4200        46
    40.4400        46
    40.4600        36
    40.4800        44
    40.5000        38
    40.5200        30
    40.5400        40
    40.5600        48
    40.5800        36
    40.6000        36
    40.6200        32
    40.6400        38
    40.6600        46
    40.6800        38
    40.7000        38
    40.7200        26
    40.7400        24
    40.7600        22
    40.7800        44
    40.8000        32
    40.8200        40
    40.8400        24
    40.8600        36
    40.8800        30
    40.9000        28
    40.9200        30
    40.9400        40
    40.9600        36
    40.9800        44
    41.0000        42
    41.0200        44
    41.0400        48
    41.0600        34
    41.0800        34
    41.1000        30
    41.1200        44
    41.1400        30
    41.1600        48
    41.1800        36
    41.2000        44
    41.2200        20
    41.2400        24
    41.2600        34
    41.2800        22
    41.3000        38
    41.3200        22
    41.3400        42
    41.3600        50
    41.3800        42
    41.4000        42
    41.4200        28
    41.4400        26
    41.4600        30
    41.4800        42
    41.5000        32
    41.5200        42
    41.5400        38
    41.5600        30
    41.5800        32
    41.6000        28
    41.6200        34
    41.6400        30
    41.6600        46
    41.6800        38
    41.7000        38
    41.7200        48
    41.7400        36
    41.7600        32
    41.7800        38
    41.8000        36
    41.8200        38
    41.8400        42
    41.8600        42
    41.8800        42
    41.9000        40
    41.9200        38
    41.9400        46
    41.9600        40
    41.9800        52
    42.0000        56
    42.0200        44
    42.0400        50
    42.0600        54
    42.0800        58
    42.1000        52
    42.1200        58
    42.1400        42
    42.1600        68
    42.1800        62
    42.2000        66
    42.2200        76
    42.2400        78
    42.2600        56
    42.2800        68
    42.3000        80
    42.3200        78
    42.3400        62
    42.3600        72
    42.3800        74
    42.4000        70
    42.4200        78
    42.4400        56
    42.4600        66
    42.4800        50
    42.5000        46
    42.5200        36
    42.5400        34
    42.5600        50
    42.5800        58
    42.6000        44
    42.6200        34
    42.6400        38
    42.6600        34
    42.6800        28
    42.7000        30
    42.7200        26
    42.7400        38
    42.7600        30
    42.7800        38
    42.8000        32
    42.8200        30
    42.8400        28
    42.8600        28
    42.8800        34
    42.9000        34
    42.9200        26
    42.9400        32
    42.9600        24
    42.9800        40
    43.0000        32
    43.0200        28
    43.0400        30
    43.0600        30
    43.0800        32
    43.1000        36
    43.1200        32
    43.1400        34
    43.1600        26
    43.1800        26
    43.2000        30
    43.2200        36
    43.2400        38
    43.2600        28
    43.2800        32
    43.3000        26
    43.3200        38
    43.3400        32
    43.3600        24
    43.3800        24
    43.4000        34
    43.4200        18
    43.4400        28
    43.4600        22
    43.4800        34
    43.5000        34
    43.5200        50
    43.5400        34
    43.5600        34
    43.5800        28
    43.6000        28
    43.6200        36
    43.6400        24
    43.6600        26
    43.6800        16
    43.7000        30
    43.7200        32
    43.7400        30
    43.7600        24
    43.7800        36
    43.8000        26
    43.8200        40
    43.8400        26
    43.8600        26
    43.8800        20
    43.9000        40
    43.9200        32
    43.9400        38
    43.9600        38
    43.9800        36
    44.0000        36
    44.0200        34
    44.0400        44
    44.0600        38
    44.0800        48
    44.1000        32
    44.1200        30
    44.1400        40
    44.1600        24
    44.1800        42
    44.2000        38
    44.2200        40
    44.2400        40
    44.2600        34
    44.2800        34
    44.3000        40
    44.3200        28
    44.3400        46
    44.3600        34
    44.3800        38
    44.4000        36
    44.4200        42
    44.4400        38
    44.4600        34
    44.4800        40
    44.5000        36
    44.5200        28
    44.5400        36
    44.5600        50
    44.5800        34
    44.6000        40
    44.6200        36
    44.6400        56
    44.6600        42
    44.6800        38
    44.7000        32
    44.7200        28
    44.7400        38
    44.7600        48
    44.7800        40
    44.8000        32
    44.8200        46
    44.8400        36
    44.8600        34
    44.8800        40
    44.9000        54
    44.9200        44
    44.9400        52
    44.9600        44
    44.9800        54
    45.0000        56
    45.0200        44
    45.0400        68
    45.0600        60
    45.0800        58
    45.1000        36
    45.1200        38
    45.1400        58
    45.1600        54
    45.1800        38
    45.2000        50
    45.2200        44
    45.2400        64
    45.2600        68
    45.2800        54
    45.3000        68
    45.3200        58
    45.3400        62
    45.3600        68
    45.3800        50
    45.4000        68
    45.4200        48
    45.4400        76
    45.4600        64
    45.4800        66
    45.5000        54
    45.5200        54
    45.5400        66
    45.5600        60
    45.5800        68
    45.6000        64
    45.6200        72
    45.6400        52
    45.6600        64
    45.6800        64
    45.7000        72
    45.7200        54
    45.7400        80
    45.7600        62
    45.7800        72
    45.8000        62
    45.8200        58
    45.8400        64
    45.8600        56
    45.8800        50
    45.9000        56
    45.9200        48
    45.9400        52
    45.9600        50
    45.9800        46
    46.0000        40
    46.0200        50
    46.0400        50
    46.0600        46
    46.0800        46
    46.1000        48
    46.1200        62
    46.1400        40
    46.1600        42
    46.1800        50
    46.2000        54
    46.2200        42
    46.2400        38
    46.2600        40
    46.2800        50
    46.3000        62
    46.3200        50
    46.3400        42
    46.3600        42
    46.3800        34
    46.4000        60
    46.4200        40
    46.4400        50
    46.4600        56
    46.4800        48
    46.5000        40
    46.5200        42
    46.5400        44
    46.5600        44
    46.5800        56
    46.6000        60
    46.6200        52
    46.6400        60
    46.6600        44
    46.6800        56
    46.7000        68
    46.7200        60
    46.7400        66
    46.7600        58
    46.7800        60
    46.8000        60
    46.8200        64
    46.8400        72
    46.8600        92
    46.8800        78
    46.9000        80
    46.9200        86
    46.9400        84
    46.9600       114
    46.9800       108
    47.0000       116
    47.0200       124
    47.0400       134
    47.0600       164
    47.0800       184
    47.1000       178
    47.1200       180
    47.1400       216
    47.1600       216
    47.1800       258
    47.2000       270
    47.2200       264
    47.2400       238
    47.2600       226
    47.2800       238
    47.3000       226
    47.3200       212
    47.3400       188
    47.3600       190
    47.3800       178
    47.4000       148
    47.4200       164
    47.4400       130
    47.4600       132
    47.4800       118
    47.5000        92
    47.5200       110
    47.5400        90
    47.5600        76
    47.5800        80
    47.6000        58
    47.6200        76
    47.6400        70
    47.6600        58
    47.6800        66
    47.7000        64
    47.7200        40
    47.7400        60
    47.7600        54
    47.7800        60
    47.8000        48
    47.8200        42
    47.8400        44
    47.8600        54
    47.8800        48
    47.9000        40
    47.9200        44
    47.9400        42
    47.9600        50
    47.9800        42
    48.0000        52
    48.0200        44
    48.0400        58
    48.0600        36
    48.0800        50
    48.1000        50
    48.1200        48
    48.1400        56
    48.1600        50
    48.1800        60
    48.2000        46
    48.2200        48
    48.2400        52
    48.2600        42
    48.2800        58
    48.3000        46
    48.3200        50
    48.3400        54
    48.3600        56
    48.3800        60
    48.4000        58
    48.4200        46
    48.4400        52
    48.4600        52
    48.4800        52
    48.5000        38
    48.5200        68
    48.5400        56
    48.5600        40
    48.5800        66
    48.6000        58
    48.6200        50
    48.6400        52
    48.6600        48
    48.6800        50
    48.7000        40
    48.7200        58
    48.7400        56
    48.7600        62
    48.7800        54
    48.8000        56
    48.8200        52
    48.8400        54
    48.8600        52
    48.8800        54
    48.9000        64
    48.9200        44
    48.9400        42
    48.9600        46
    48.9800        58
    49.0000        54
    49.0200        38
    49.0400        42
    49.0600        38
    49.0800        42
    49.1000        42
    49.1200        44
    49.1400        44
    49.1600        36
    49.1800        38
    49.2000        40
    49.2200        42
    49.2400        54
    49.2600        48
    49.2800        48
    49.3000        54
    49.3200        44
    49.3400        42
    49.3600        44
    49.3800        44
    49.4000        50
    49.4200        44
    49.4400        40
    49.4600        50
    49.4800        38
    49.5000        38
    49.5200        52
    49.5400        44
    49.5600        56
    49.5800        48
    49.6000        40
    49.6200        42
    49.6400        62
    49.6600        40
    49.6800        40
    49.7000        38
    49.7200        44
    49.7400        52
    49.7600        34
    49.7800        46
    49.8000        54
    49.8200        44
    49.8400        44
    49.8600        44
    49.8800        62
    49.9000        56
    49.9200        50
    49.9400        34
    49.9600        50
    49.9800        38
    50.0000        46
    50.0200        50
    50.0400        38
    50.0600        42
    50.0800        42
    50.1000        56
    50.1200        48
    50.1400        54
    50.1600        58
    50.1800        44
    50.2000        60
    50.2200        58
    50.2400        48
    50.2600        52
    50.2800        52
    50.3000        52
    50.3200        44
    50.3400        56
    50.3600        52
    50.3800        54
    50.4000        50
    50.4200        44
    50.4400        44
    50.4600        52
    50.4800        58
    50.5000        58
    50.5200        56
    50.5400        36
    50.5600        36
    50.5800        40
    50.6000        44
    50.6200        52
    50.6400        42
    50.6600        42
    50.6800        38
    50.7000        44
    50.7200        34
    50.7400        42
    50.7600        40
    50.7800        50
    50.8000        46
    50.8200        54
    50.8400        54
    50.8600        40
    50.8800        40
    50.9000        38
    50.9200        48
    50.9400        58
    50.9600        44
    50.9800        40
    51.0000        48
    51.0200        46
    51.0400        40
    51.0600        64
    51.0800        54
    51.1000        54
    51.1200        50
    51.1400        48
    51.1600        46
    51.1800        48
    51.2000        58
    51.2200        46
    51.2400        66
    51.2600        44
    51.2800        40
    51.3000        44
    51.3200        52
    51.3400        60
    51.3600        56
    51.3800        44
    51.4000        66
    51.4200        60
    51.4400        40
    51.4600        62
    51.4800        56
    51.5000        62
    51.5200        60
    51.5400        54
    51.5600        74
    51.5800        62
    51.6000        78
    51.6200        72
    51.6400        76
    51.6600        68
    51.6800        70
    51.7000        54
    51.7200        62
    51.7400        74
    51.7600        96
    51.7800        56
    51.8000        58
    51.8200        64
    51.8400        64
    51.8600        42
    51.8800        64
    51.9000        62
    51.9200        58
    51.9400        52
    51.9600        62
    51.9800        50
    52.0000        70
    52.0200        52
    52.0400        46
    52.0600        66
    52.0800        50
    52.1000        40
    52.1200        54
    52.1400        62
    52.1600        48
    52.1800        58
    52.2000        48
    52.2200        34
    52.2400        50
    52.2600        48
    52.2800        44
    52.3000        58
    52.3200        40
    52.3400        34
    52.3600        34
    52.3800        40
    52.4000        40
    52.4200        34
    52.4400        46
    52.4600        34
    52.4800        42
    52.5000        42
    52.5200        38
    52.5400        54
    52.5600        42
    52.5800        38
    52.6000        52
    52.6200        46
    52.6400        34
    52.6600        36
    52.6800        22
    52.7000        50
    52.7200        42
    52.7400        36
    52.7600        42
    52.7800        32
    52.8000        42
    52.8200        38
    52.8400        24
    52.8600        44
    52.8800        40
    52.9000        46
    52.9200        42
    52.9400        32
    52.9600        50
    52.9800        40
    53.0000        52
    53.0200        38
    53.0400        36
    53.0600        46
    53.0800        46
    53.1000        62
    53.1200        50
    53.1400        30
    53.1600        56
    53.1800        36
    53.2000        42
    53.2200        62
    53.2400        50
    53.2600        48
    53.2800        48
    53.3000        62
    53.3200        52
    53.3400        62
    53.3600        70
    53.3800        58
    53.4000        56
    53.4200        50
    53.4400        42
    53.4600        52
    53.4800        52
    53.5000        36
    53.5200        50
    53.5400        60
    53.5600        46
    53.5800        58
    53.6000        52
    53.6200        60
    53.6400        60
    53.6600        54
    53.6800        62
    53.7000        48
    53.7200        50
    53.7400        38
    53.7600        54
    53.7800        50
    53.8000        64
    53.8200        52
    53.8400        44
    53.8600        58
    53.8800        38
    53.9000        50
    53.9200        54
    53.9400        66
    53.9600        74
    53.9800        48
    54.0000        46
    54.0200        60
    54.0400        50
    54.0600        54
    54.0800        58
    54.1000        54
    54.1200        46
    54.1400        40
    54.1600        50
    54.1800        56
    54.2000        50
    54.2200        50
    54.2400        52
    54.2600        42
    54.2800        50
    54.3000        46
    54.3200        48
    54.3400        36
    54.3600        66
    54.3800        48
    54.4000        54
    54.4200        50
    54.4400        48
    54.4600        50
    54.4800        46
    54.5000        62
    54.5200        64
    54.5400        58
    54.5600        70
    54.5800        68
    54.6000        68
    54.6200        66
    54.6400        56
    54.6600        58
    54.6800        52
    54.7000        72
    54.7200        54
    54.7400        68
    54.7600        54
    54.7800        48
    54.8000        44
    54.8200        56
    54.8400        44
    54.8600        42
    54.8800        52
    54.9000        36
    54.9200        42
    54.9400        58
    54.9600        50
    54.9800        40
    55.0000        58
    55.0200        40
    55.0400        54
    55.0600        38
    55.0800        50
    55.1000        40
    55.1200        44
    55.1400        56
    55.1600        36
    55.1800        30
    55.2000        40
    55.2200        60
    55.2400        42
    55.2600        46
    55.2800        48
    55.3000        28
    55.3200        50
    55.3400        52
    55.3600        46
    55.3800        44
    55.4000        50
    55.4200        48
    55.4400        44
    55.4600        50
    55.4800        60
    55.5000        50
    55.5200        72
    55.5400        38
    55.5600        62
    55.5800        44
    55.6000        60
    55.6200        60
    55.6400        64
    55.6600        72
    55.6800        64
    55.7000        72
    55.7200        68
    55.7400        72
    55.7600        94
    55.7800        90
    55.8000        96
    55.8200        92
    55.8400        96
    55.8600       112
    55.8800       116
    55.9000       142
    55.9200       130
    55.9400       158
    55.9600       158
    55.9800       168
    56.0000       156
    56.0200       174
    56.0400       168
    56.0600       170
    56.0800       178
    56.1000       174
    56.1200       174
    56.1400       154
    56.1600       140
    56.1800       156
    56.2000       112
    56.2200       114
    56.2400        98
    56.2600       108
    56.2800        98
    56.3000        86
    56.3200        88
    56.3400        74
    56.3600        80
    56.3800        64
    56.4000        68
    56.4200        52
    56.4400        54
    56.4600        54
    56.4800        64
    56.5000        54
    56.5200        66
    56.5400        54
    56.5600        38
    56.5800        50
    56.6000        60
    56.6200        54
    56.6400        44
    56.6600        58
    56.6800        46
    56.7000        34
    56.7200        52
    56.7400        36
    56.7600        42
    56.7800        46
    56.8000        34
    56.8200        44
    56.8400        32
    56.8600        42
    56.8800        48
    56.9000        52
    56.9200        40
    56.9400        42
    56.9600        46
    56.9800        40
    57.0000        30
    57.0200        40
    57.0400        44
    57.0600        50
    57.0800        50
    57.1000        44
    57.1200        34
    57.1400        44
    57.1600        40
    57.1800        48
    57.2000        50
    57.2200        48
    57.2400        42
    57.2600        56
    57.2800        36
    57.3000        52
    57.3200        66
    57.3400        46
    57.3600        58
    57.3800        78
    57.4000        52
    57.4200        54
    57.4400        56
    57.4600        68
    57.4800        58
    57.5000        58
    57.5200        62
    57.5400        62
    57.5600        62
    57.5800        58
    57.6000        46
    57.6200        56
    57.6400        50
    57.6600        58
    57.6800        40
    57.7000        46
    57.7200        52
    57.7400        46
    57.7600        38
    57.7800        32
    57.8000        40
    57.8200        42
    57.8400        58
    57.8600        50
    57.8800        36
    57.9000        44
    57.9200        44
    57.9400        44
    57.9600        36
    57.9800        44
    58.0000        50
    58.0200        38
    58.0400        46
    58.0600        32
    58.0800        36
    58.1000        34
    58.1200        44
    58.1400        38
    58.1600        34
    58.1800        50
    58.2000        56
    58.2200        40
    58.2400        42
    58.2600        40
    58.2800        58
    58.3000        34
    58.3200        50
    58.3400        44
    58.3600        40
    58.3800        32
    58.4000        54
    58.4200        42
    58.4400        48
    58.4600        58
    58.4800        52
    58.5000        46
    58.5200        48
    58.5400        54
    58.5600        46
    58.5800        62
    58.6000        54
    58.6200        56
    58.6400        76
    58.6600        70
    58.6800        74
    58.7000        64
    58.7200        66
    58.7400        60
    58.7600        64
    58.7800        64
    58.8000        60
    58.8200        74
    58.8400        72
    58.8600        78
    58.8800        62
    58.9000        64
    58.9200        62
    58.9400        50
    58.9600        58
    58.9800        46
    59.0000        46
    59.0200        46
    59.0400        48
    59.0600        46
    59.0800        48
    59.1000        54
    59.1200        48
    59.1400        42
    59.1600        40
    59.1800        54
    59.2000        42
    59.2200        56
    59.2400        52
    59.2600        42
    59.2800        50
    59.3000        34
    59.3200        54
    59.3400        50
    59.3600        36
    59.3800        32
    59.4000        36
    59.4200        50
    59.4400        36
    59.4600        26
    59.4800        30
    59.5000        34
    59.5200        38
    59.5400        36
    59.5600        26
    59.5800        36
    59.6000        52
    59.6200        34
    59.6400        42
    59.6600        38
    59.6800        24
    59.7000        38
    59.7200        36
    59.7400        40
    59.7600        36
    59.7800        36
    59.8000        40
    59.8200        46
    59.8400        46
    59.8600        40
    59.8800        40
    59.9000        48
    59.9200        28
    59.9400        44
    59.9600        40
    59.9800        32
    60.0000        42
    60.0200        32
    60.0400        36
    60.0600        42
    60.0800        40
    60.1000        44
    60.1200        44
    60.1400        46
    60.1600        50
    60.1800        48
    60.2000        50
    60.2200        28
    60.2400        40
    60.2600        32
    60.2800        40
    60.3000        44
    60.3200        52
    60.3400        28
    60.3600        32
    60.3800        48
    60.4000        34
    60.4200        44
    60.4400        36
    60.4600        40
    60.4800        38
    60.5000        34
    60.5200        36
    60.5400        32
    60.5600        36
    60.5800        38
    60.6000        28
    60.6200        42
    60.6400        46
    60.6600        32
    60.6800        40
    60.7000        32
    60.7200        50
    60.7400        38
    60.7600        36
    60.7800        32
    60.8000        26
    60.8200        32
    60.8400        38
    60.8600        34
    60.8800        32
    60.9000        18
    60.9200        42
    60.9400        38
    60.9600        28
    60.9800        42
    61.0000        44
    61.0200        46
    61.0400        38
    61.0600        46
    61.0800        42
    61.1000        38
    61.1200        32
    61.1400        32
    61.1600        36
    61.1800        40
    61.2000        28
    61.2200        26
    61.2400        38
    61.2600        34
    61.2800        36
    61.3000        22
    61.3200        28
    61.3400        34
    61.3600        40
    61.3800        36
    61.4000        38
    61.4200        38
    61.4400        26
    61.4600        42
    61.4800        42
    61.5000        36
    61.5200        40
    61.5400        32
    61.5600        36
    61.5800        34
    61.6000        26
    61.6200        24
    61.6400        36
    61.6600        36
    61.6800        36
    61.7000        30
    61.7200        26
    61.7400        30
    61.7600        36
    61.7800        30
    61.8000        36
    61.8200        42
    61.8400        28
    61.8600        32
    61.8800        28
    61.9000        42
    61.9200        46
    61.9400        26
    61.9600        28
    61.9800        42
    62.0000        24
    62.0200        28
    62.0400        30
    62.0600        44
    62.0800        28
    62.1000        30
    62.1200        36
    62.1400        24
    62.1600        34
    62.1800        36
    62.2000        30
    62.2200        22
    62.2400        30
    62.2600        42
    62.2800        36
    62.3000        28
    62.3200        32
    62.3400        34
    62.3600        40
    62.3800        38
    62.4000        42
    62.4200        36
    62.4400        32
    62.4600        32
    62.4800        36
    62.5000        24
    62.5200        38
    62.5400        38
    62.5600        38
    62.5800        30
    62.6000        38
    62.6200        30
    62.6400        50
    62.6600        40
    62.6800        38
    62.7000        38
    62.7200        40
    62.7400        32
    62.7600        38
    62.7800        30
    62.8000        50
    62.8200        42
    62.8400        38
    62.8600        32
    62.8800        32
    62.9000        38
    62.9200        18
    62.9400        26
    62.9600        34
    62.9800        36
    63.0000        28
    63.0200        38
    63.0400        36
    63.0600        38
    63.0800        24
    63.1000        38
    63.1200        40
    63.1400        22
    63.1600        14
    63.1800        26
    63.2000        14
    63.2200        18
    63.2400        28
    63.2600        36
    63.2800        32
    63.3000        26
    63.3200        24
    63.3400        42
    63.3600        40
    63.3800        24
    63.4000        30
    63.4200        36
    63.4400        38
    63.4600        28
    63.4800        24
    63.5000        24
    63.5200        22
    63.5400        24
    63.5600        32
    63.5800        30
    63.6000        26
    63.6200        28
    63.6400        24
    63.6600        32
    63.6800        28
    63.7000        36
    63.7200        26
    63.7400        46
    63.7600        34
    63.7800        32
    63.8000        24
    63.8200        32
    63.8400        20
    63.8600        24
    63.8800        20
    63.9000        22
    63.9200        30
    63.9400        40
    63.9600        42
    63.9800        28
    64.0000        32
    64.0200        40
    64.0400        28
    64.0600        30
    64.0800        28
    64.1000        28
    64.1200        26
    64.1400        26
    64.1600        34
    64.1800        12
    64.2000        32
    64.2200        34
    64.2400        20
    64.2600        16
    64.2800        42
    64.3000        34
    64.3200        28
    64.3400        32
    64.3600        28
    64.3800        30
    64.4000        20
    64.4200        22
    64.4400        32
    64.4600        28
    64.4800        34
    64.5000        22
    64.5200        28
    64.5400        24
    64.5600        34
    64.5800        20
    64.6000        30
    64.6200        20
    64.6400        32
    64.6600        26
    64.6800        32
    64.7000        20
    64.7200        28
    64.7400        32
    64.7600        16
    64.7800        22
    64.8000        32
    64.8200        28
    64.8400        22
    64.8600        24
    64.8800        28
    64.9000        26
    64.9200        32
    64.9400        38
    64.9600        30
    64.9800        36
    65.0000        28
