/////////////////////////////////////////////////////////////////////////////////
/// Profile Data Ascii Dump (XRD)                                             ///
/////////////////////////////////////////////////////////////////////////////////

  Group     : Swayze
  Data      : GDS46
  File Name : GDS46.RAW

# Profile Datafile
          comment             = Scapolite 
          date & time         = 08-03-25 06:22:10 

# Measurement Condition
    X-ray tube
          target              = Cu 
          voltage             = 40.0 (kV)
          current             = 30.0 (mA)
    Slits
          divergence slit     = 2.00000 (deg) 
          scatter slit        = 2.00000 (deg) 
          receiving slit      = 0.15000 (mm)  
    Scanning
          drive axis          = Theta-2Theta 
          scan range          =    4.000 -   65.000 
          scan mode           = Continuous Scan 
          scan speed          =   2.0000 (deg/min) 
          sampling pitch      =   0.0200 (deg) 
          preset time         =   0.60 (sec) 

# Data      [ Total No. = 3051 ]
  <2Theta>   <   I   >
     4.0000       176
     4.0200       168
     4.0400       174
     4.0600       202
     4.0800       196
     4.1000       190
     4.1200       166
     4.1400       186
     4.1600       170
     4.1800       166
     4.2000       160
     4.2200       182
     4.2400       168
     4.2600       148
     4.2800       168
     4.3000       182
     4.3200       164
     4.3400       182
     4.3600       178
     4.3800       178
     4.4000       168
     4.4200       176
     4.4400       188
     4.4600       166
     4.4800       156
     4.5000       142
     4.5200       176
     4.5400       148
     4.5600       152
     4.5800       162
     4.6000       146
     4.6200       152
     4.6400       158
     4.6600       180
     4.6800       126
     4.7000       164
     4.7200       182
     4.7400       148
     4.7600       156
     4.7800       144
     4.8000       142
     4.8200       150
     4.8400       138
     4.8600       178
     4.8800       162
     4.9000       156
     4.9200       152
     4.9400       152
     4.9600       140
     4.9800       160
     5.0000       140
     5.0200       168
     5.0400       168
     5.0600       150
     5.0800       128
     5.1000       164
     5.1200       162
     5.1400       158
     5.1600       146
     5.1800       150
     5.2000       154
     5.2200       150
     5.2400       150
     5.2600       154
     5.2800       152
     5.3000       168
     5.3200       172
     5.3400       158
     5.3600       152
     5.3800       154
     5.4000       180
     5.4200       166
     5.4400       168
     5.4600       152
     5.4800       162
     5.5000       156
     5.5200       156
     5.5400       140
     5.5600       152
     5.5800       154
     5.6000       168
     5.6200       172
     5.6400       154
     5.6600       144
     5.6800       144
     5.7000       160
     5.7200       144
     5.7400       136
     5.7600       144
     5.7800       150
     5.8000       144
     5.8200       146
     5.8400       168
     5.8600       138
     5.8800       152
     5.9000       154
     5.9200       140
     5.9400       154
     5.9600       142
     5.9800       156
     6.0000       146
     6.0200       154
     6.0400       162
     6.0600       166
     6.0800       158
     6.1000       150
     6.1200       166
     6.1400       142
     6.1600       160
     6.1800       140
     6.2000       174
     6.2200       142
     6.2400       118
     6.2600       148
     6.2800       126
     6.3000       150
     6.3200       150
     6.3400       146
     6.3600       144
     6.3800       162
     6.4000       150
     6.4200       148
     6.4400       148
     6.4600       144
     6.4800       138
     6.5000       126
     6.5200       152
     6.5400       138
     6.5600       130
     6.5800        96
     6.6000       130
     6.6200       138
     6.6400       124
     6.6600       142
     6.6800       126
     6.7000       130
     6.7200       108
     6.7400       130
     6.7600       126
     6.7800       114
     6.8000       118
     6.8200       128
     6.8400       124
     6.8600       126
     6.8800       134
     6.9000       114
     6.9200       122
     6.9400       108
     6.9600       138
     6.9800       110
     7.0000       108
     7.0200       122
     7.0400       122
     7.0600       134
     7.0800       138
     7.1000       124
     7.1200       102
     7.1400       124
     7.1600       108
     7.1800       108
     7.2000       112
     7.2200       120
     7.2400       112
     7.2600       118
     7.2800       106
     7.3000       110
     7.3200       122
     7.3400       114
     7.3600       104
     7.3800       102
     7.4000       108
     7.4200       104
     7.4400       104
     7.4600       116
     7.4800       106
     7.5000       104
     7.5200       102
     7.5400       114
     7.5600       106
     7.5800       110
     7.6000       118
     7.6200       136
     7.6400       120
     7.6600       128
     7.6800       108
     7.7000       112
     7.7200       106
     7.7400        92
     7.7600       116
     7.7800        98
     7.8000       106
     7.8200        98
     7.8400       118
     7.8600       112
     7.8800       120
     7.9000       108
     7.9200       114
     7.9400       130
     7.9600       100
     7.9800       102
     8.0000       106
     8.0200       116
     8.0400        96
     8.0600        94
     8.0800       114
     8.1000       100
     8.1200       108
     8.1400       110
     8.1600       114
     8.1800       126
     8.2000       110
     8.2200       118
     8.2400       110
     8.2600       104
     8.2800       102
     8.3000       118
     8.3200       112
     8.3400       110
     8.3600       122
     8.3800       132
     8.4000       104
     8.4200        98
     8.4400       110
     8.4600        98
     8.4800        88
     8.5000       110
     8.5200        94
     8.5400       130
     8.5600       126
     8.5800       100
     8.6000       116
     8.6200       136
     8.6400       116
     8.6600       126
     8.6800       100
     8.7000       108
     8.7200       118
     8.7400       112
     8.7600       124
     8.7800       112
     8.8000       104
     8.8200       106
     8.8400       112
     8.8600       116
     8.8800       114
     8.9000       104
     8.9200       106
     8.9400       122
     8.9600       106
     8.9800        98
     9.0000       138
     9.0200       108
     9.0400       122
     9.0600       102
     9.0800       114
     9.1000       126
     9.1200       112
     9.1400       104
     9.1600       120
     9.1800       100
     9.2000       114
     9.2200       120
     9.2400       106
     9.2600       122
     9.2800       124
     9.3000        88
     9.3200       122
     9.3400       104
     9.3600       104
     9.3800       100
     9.4000       108
     9.4200       118
     9.4400        98
     9.4600       102
     9.4800       110
     9.5000       106
     9.5200       106
     9.5400       128
     9.5600       128
     9.5800       108
     9.6000        88
     9.6200       102
     9.6400        98
     9.6600       116
     9.6800       124
     9.7000       108
     9.7200        90
     9.7400       104
     9.7600       100
     9.7800        96
     9.8000        96
     9.8200       104
     9.8400        94
     9.8600       118
     9.8800       108
     9.9000       128
     9.9200        90
     9.9400       104
     9.9600       116
     9.9800        92
    10.0000        86
    10.0200        92
    10.0400       102
    10.0600       116
    10.0800       112
    10.1000       118
    10.1200        80
    10.1400       102
    10.1600       124
    10.1800       108
    10.2000       110
    10.2200       116
    10.2400       128
    10.2600       104
    10.2800       106
    10.3000       114
    10.3200       116
    10.3400       136
    10.3600       172
    10.3800       176
    10.4000       162
    10.4200       128
    10.4400       134
    10.4600       104
    10.4800       116
    10.5000       106
    10.5200       100
    10.5400        82
    10.5600        90
    10.5800       100
    10.6000       112
    10.6200        78
    10.6400        90
    10.6600        92
    10.6800        90
    10.7000        88
    10.7200       114
    10.7400        92
    10.7600        92
    10.7800        94
    10.8000        74
    10.8200        90
    10.8400       100
    10.8600        74
    10.8800        90
    10.9000        82
    10.9200        86
    10.9400        86
    10.9600        70
    10.9800        84
    11.0000        76
    11.0200        82
    11.0400        84
    11.0600        96
    11.0800        82
    11.1000        86
    11.1200        88
    11.1400        96
    11.1600        78
    11.1800        94
    11.2000        98
    11.2200        68
    11.2400        90
    11.2600        80
    11.2800        82
    11.3000        80
    11.3200        92
    11.3400        84
    11.3600        84
    11.3800        64
    11.4000        86
    11.4200        82
    11.4400        92
    11.4600        82
    11.4800        74
    11.5000        70
    11.5200        86
    11.5400        74
    11.5600        76
    11.5800        78
    11.6000        78
    11.6200        76
    11.6400        86
    11.6600        76
    11.6800        78
    11.7000        78
    11.7200        82
    11.7400        82
    11.7600        72
    11.7800        72
    11.8000        70
    11.8200        84
    11.8400        82
    11.8600        66
    11.8800        82
    11.9000        82
    11.9200        76
    11.9400        62
    11.9600        70
    11.9800        66
    12.0000        94
    12.0200        74
    12.0400        86
    12.0600        76
    12.0800        66
    12.1000        80
    12.1200        72
    12.1400        90
    12.1600        94
    12.1800        74
    12.2000       102
    12.2200        74
    12.2400        76
    12.2600        72
    12.2800        78
    12.3000        58
    12.3200        72
    12.3400        62
    12.3600        84
    12.3800        80
    12.4000        78
    12.4200        78
    12.4400        92
    12.4600        88
    12.4800        74
    12.5000        84
    12.5200        96
    12.5400        68
    12.5600        76
    12.5800        80
    12.6000        66
    12.6200        90
    12.6400        62
    12.6600        82
    12.6800        72
    12.7000        64
    12.7200        70
    12.7400        76
    12.7600        84
    12.7800        72
    12.8000        52
    12.8200        70
    12.8400        66
    12.8600        62
    12.8800        76
    12.9000        52
    12.9200        58
    12.9400        64
    12.9600        74
    12.9800        64
    13.0000        84
    13.0200        54
    13.0400        76
    13.0600        72
    13.0800        78
    13.1000        88
    13.1200        54
    13.1400        70
    13.1600        60
    13.1800        68
    13.2000        78
    13.2200        82
    13.2400        70
    13.2600        82
    13.2800        74
    13.3000        66
    13.3200        70
    13.3400        72
    13.3600        78
    13.3800        80
    13.4000        60
    13.4200        72
    13.4400        82
    13.4600        76
    13.4800        74
    13.5000        74
    13.5200        86
    13.5400        74
    13.5600        54
    13.5800        72
    13.6000        82
    13.6200        80
    13.6400        96
    13.6600        72
    13.6800        96
    13.7000        74
    13.7200        84
    13.7400       100
    13.7600        98
    13.7800       104
    13.8000       124
    13.8200       156
    13.8400       132
    13.8600       106
    13.8800        78
    13.9000        80
    13.9200        90
    13.9400        86
    13.9600        94
    13.9800        72
    14.0000        56
    14.0200        74
    14.0400        66
    14.0600        56
    14.0800        58
    14.1000        68
    14.1200        68
    14.1400        62
    14.1600        60
    14.1800        80
    14.2000        52
    14.2200        58
    14.2400        56
    14.2600        86
    14.2800        76
    14.3000        82
    14.3200        74
    14.3400        78
    14.3600        76
    14.3800        70
    14.4000        56
    14.4200        66
    14.4400        70
    14.4600        88
    14.4800        70
    14.5000        68
    14.5200        80
    14.5400        88
    14.5600       114
    14.5800        80
    14.6000        88
    14.6200        98
    14.6400       116
    14.6600       154
    14.6800       212
    14.7000       208
    14.7200       186
    14.7400       160
    14.7600       130
    14.7800       120
    14.8000       104
    14.8200        82
    14.8400        64
    14.8600        76
    14.8800        52
    14.9000        68
    14.9200        62
    14.9400        58
    14.9600        62
    14.9800        46
    15.0000        58
    15.0200        50
    15.0400        64
    15.0600        50
    15.0800        46
    15.1000        56
    15.1200        70
    15.1400        62
    15.1600        62
    15.1800        48
    15.2000        64
    15.2200        66
    15.2400        52
    15.2600        52
    15.2800        54
    15.3000        50
    15.3200        56
    15.3400        64
    15.3600        46
    15.3800        44
    15.4000        72
    15.4200        50
    15.4400        54
    15.4600        50
    15.4800        56
    15.5000        48
    15.5200        66
    15.5400        68
    15.5600        44
    15.5800        54
    15.6000        68
    15.6200        70
    15.6400        54
    15.6600        68
    15.6800        60
    15.7000        58
    15.7200        70
    15.7400        66
    15.7600        58
    15.7800        60
    15.8000        76
    15.8200        60
    15.8400        64
    15.8600        84
    15.8800        70
    15.9000        62
    15.9200        68
    15.9400        58
    15.9600        70
    15.9800        50
    16.0000        68
    16.0200        60
    16.0400        74
    16.0600        48
    16.0800        54
    16.1000        54
    16.1200        58
    16.1400        70
    16.1600        54
    16.1800        58
    16.2000        66
    16.2200        54
    16.2400        52
    16.2600        54
    16.2800        68
    16.3000        56
    16.3200        46
    16.3400        68
    16.3600        48
    16.3800        54
    16.4000        54
    16.4200        54
    16.4400        54
    16.4600        66
    16.4800        52
    16.5000        58
    16.5200        52
    16.5400        52
    16.5600        48
    16.5800        52
    16.6000        50
    16.6200        56
    16.6400        64
    16.6600        42
    16.6800        54
    16.7000        68
    16.7200        60
    16.7400        68
    16.7600        48
    16.7800        60
    16.8000        66
    16.8200        56
    16.8400        56
    16.8600        48
    16.8800        40
    16.9000        68
    16.9200        54
    16.9400        56
    16.9600        54
    16.9800        54
    17.0000        70
    17.0200        60
    17.0400        40
    17.0600        44
    17.0800        54
    17.1000        52
    17.1200        54
    17.1400        40
    17.1600        42
    17.1800        54
    17.2000        64
    17.2200        58
    17.2400        52
    17.2600        50
    17.2800        46
    17.3000        54
    17.3200        48
    17.3400        40
    17.3600        50
    17.3800        42
    17.4000        48
    17.4200        50
    17.4400        42
    17.4600        48
    17.4800        42
    17.5000        54
    17.5200        52
    17.5400        40
    17.5600        50
    17.5800        48
    17.6000        62
    17.6200        42
    17.6400        48
    17.6600        52
    17.6800        36
    17.7000        42
    17.7200        36
    17.7400        54
    17.7600        54
    17.7800        48
    17.8000        52
    17.8200        46
    17.8400        54
    17.8600        48
    17.8800        56
    17.9000        42
    17.9200        48
    17.9400        50
    17.9600        54
    17.9800        52
    18.0000        46
    18.0200        68
    18.0400        58
    18.0600        58
    18.0800        42
    18.1000        58
    18.1200        70
    18.1400        52
    18.1600        42
    18.1800        60
    18.2000        62
    18.2200        44
    18.2400        52
    18.2600        54
    18.2800        64
    18.3000        52
    18.3200        58
    18.3400        44
    18.3600        54
    18.3800        52
    18.4000        42
    18.4200        48
    18.4400        42
    18.4600        58
    18.4800        48
    18.5000        52
    18.5200        42
    18.5400        52
    18.5600        66
    18.5800        54
    18.6000        48
    18.6200        56
    18.6400        76
    18.6600        50
    18.6800        64
    18.7000        62
    18.7200        62
    18.7400        62
    18.7600        54
    18.7800        60
    18.8000        64
    18.8200        46
    18.8400        80
    18.8600        68
    18.8800        68
    18.9000        58
    18.9200        74
    18.9400        56
    18.9600        52
    18.9800        52
    19.0000        42
    19.0200        50
    19.0400        48
    19.0600        46
    19.0800        54
    19.1000        54
    19.1200        52
    19.1400        64
    19.1600        50
    19.1800        50
    19.2000        46
    19.2200        70
    19.2400        48
    19.2600        54
    19.2800        36
    19.3000        44
    19.3200        50
    19.3400        46
    19.3600        42
    19.3800        60
    19.4000        36
    19.4200        44
    19.4400        42
    19.4600        46
    19.4800        38
    19.5000        48
    19.5200        40
    19.5400        42
    19.5600        52
    19.5800        48
    19.6000        36
    19.6200        54
    19.6400        44
    19.6600        42
    19.6800        40
    19.7000        44
    19.7200        46
    19.7400        44
    19.7600        58
    19.7800        40
    19.8000        50
    19.8200        28
    19.8400        42
    19.8600        56
    19.8800        56
    19.9000        44
    19.9200        38
    19.9400        40
    19.9600        40
    19.9800        58
    20.0000        46
    20.0200        56
    20.0400        64
    20.0600        58
    20.0800        58
    20.1000        56
    20.1200        72
    20.1400        66
    20.1600        94
    20.1800        72
    20.2000        74
    20.2200        92
    20.2400        92
    20.2600        92
    20.2800        72
    20.3000        76
    20.3200        78
    20.3400        52
    20.3600        42
    20.3800        46
    20.4000        58
    20.4200        58
    20.4400        34
    20.4600        48
    20.4800        38
    20.5000        44
    20.5200        52
    20.5400        52
    20.5600        38
    20.5800        44
    20.6000        46
    20.6200        60
    20.6400        66
    20.6600        70
    20.6800        76
    20.7000        76
    20.7200        74
    20.7400        74
    20.7600        96
    20.7800        92
    20.8000        86
    20.8200       100
    20.8400       108
    20.8600       118
    20.8800        94
    20.9000        98
    20.9200        76
    20.9400        74
    20.9600        66
    20.9800        50
    21.0000        60
    21.0200        48
    21.0400        38
    21.0600        52
    21.0800        54
    21.1000        46
    21.1200        46
    21.1400        42
    21.1600        46
    21.1800        56
    21.2000        28
    21.2200        54
    21.2400        50
    21.2600        40
    21.2800        32
    21.3000        46
    21.3200        48
    21.3400        40
    21.3600        28
    21.3800        48
    21.4000        44
    21.4200        48
    21.4400        38
    21.4600        78
    21.4800        24
    21.5000        48
    21.5200        46
    21.5400        42
    21.5600        58
    21.5800        54
    21.6000        52
    21.6200        48
    21.6400        30
    21.6600        38
    21.6800        50
    21.7000        60
    21.7200        54
    21.7400        46
    21.7600        50
    21.7800        36
    21.8000        52
    21.8200        42
    21.8400        38
    21.8600        64
    21.8800        46
    21.9000        50
    21.9200        58
    21.9400        50
    21.9600        52
    21.9800        42
    22.0000        68
    22.0200        72
    22.0400        72
    22.0600        88
    22.0800        98
    22.1000        84
    22.1200        74
    22.1400        64
    22.1600        76
    22.1800        64
    22.2000        42
    22.2200        44
    22.2400        40
    22.2600        56
    22.2800        54
    22.3000        46
    22.3200        54
    22.3400        40
    22.3600        42
    22.3800        46
    22.4000        46
    22.4200        54
    22.4400        48
    22.4600        56
    22.4800        40
    22.5000        50
    22.5200        56
    22.5400        56
    22.5600        50
    22.5800        48
    22.6000        46
    22.6200        58
    22.6400        42
    22.6600        52
    22.6800        58
    22.7000        44
    22.7200        52
    22.7400        44
    22.7600        48
    22.7800        50
    22.8000        56
    22.8200        56
    22.8400        58
    22.8600        60
    22.8800        42
    22.9000        54
    22.9200        72
    22.9400        68
    22.9600        60
    22.9800        64
    23.0000        78
    23.0200       128
    23.0400       136
    23.0600       122
    23.0800       136
    23.1000       148
    23.1200       140
    23.1400       144
    23.1600       174
    23.1800       284
    23.2000       482
    23.2200       504
    23.2400       524
    23.2600       646
    23.2800       680
    23.3000      1116
    23.3200      1334
    23.3400      1036
    23.3600      1084
    23.3800       960
    23.4000       650
    23.4200       436
    23.4400       314
    23.4600       254
    23.4800       210
    23.5000       184
    23.5200       180
    23.5400       172
    23.5600       170
    23.5800       128
    23.6000       138
    23.6200        94
    23.6400        72
    23.6600        82
    23.6800        76
    23.7000        60
    23.7200        72
    23.7400        52
    23.7600        58
    23.7800        52
    23.8000        54
    23.8200        56
    23.8400        64
    23.8600        52
    23.8800        48
    23.9000        52
    23.9200        60
    23.9400        60
    23.9600        66
    23.9800        70
    24.0000        74
    24.0200        62
    24.0400        62
    24.0600        60
    24.0800        62
    24.1000        52
    24.1200        40
    24.1400        72
    24.1600        70
    24.1800        42
    24.2000        56
    24.2200        56
    24.2400        74
    24.2600        66
    24.2800        66
    24.3000        62
    24.3200        48
    24.3400        72
    24.3600        52
    24.3800        74
    24.4000        52
    24.4200        46
    24.4400        60
    24.4600        40
    24.4800        50
    24.5000        40
    24.5200        54
    24.5400        58
    24.5600        52
    24.5800        46
    24.6000        48
    24.6200        64
    24.6400        56
    24.6600        66
    24.6800        52
    24.7000        62
    24.7200        58
    24.7400        58
    24.7600        56
    24.7800        58
    24.8000        58
    24.8200        70
    24.8400        92
    24.8600       106
    24.8800       120
    24.9000       142
    24.9200       120
    24.9400       158
    24.9600       154
    24.9800       218
    25.0000       290
    25.0200       430
    25.0400       568
    25.0600       670
    25.0800       638
    25.1000       556
    25.1200       418
    25.1400       350
    25.1600       242
    25.1800       176
    25.2000       116
    25.2200        88
    25.2400       102
    25.2600        86
    25.2800       106
    25.3000        90
    25.3200        88
    25.3400        96
    25.3600       102
    25.3800       116
    25.4000       118
    25.4200       128
    25.4400       106
    25.4600       146
    25.4800       188
    25.5000       316
    25.5200       540
    25.5400       592
    25.5600       638
    25.5800       728
    25.6000       970
    25.6200      1036
    25.6400       940
    25.6600      1028
    25.6800      1096
    25.7000      1116
    25.7200      1240
    25.7400      1094
    25.7600       780
    25.7800       742
    25.8000       562
    25.8200       330
    25.8400       268
    25.8600       166
    25.8800       130
    25.9000       124
    25.9200        94
    25.9400       118
    25.9600       106
    25.9800       130
    26.0000       126
    26.0200       116
    26.0400       104
    26.0600        92
    26.0800        66
    26.1000        66
    26.1200        66
    26.1400        50
    26.1600        50
    26.1800        68
    26.2000        52
    26.2200        64
    26.2400        56
    26.2600        54
    26.2800        72
    26.3000        70
    26.3200        64
    26.3400        60
    26.3600        68
    26.3800        56
    26.4000        46
    26.4200        70
    26.4400        62
    26.4600        72
    26.4800        60
    26.5000        48
    26.5200        40
    26.5400        62
    26.5600        50
    26.5800        48
    26.6000        40
    26.6200        48
    26.6400        38
    26.6600        56
    26.6800        40
    26.7000        38
    26.7200        48
    26.7400        48
    26.7600        56
    26.7800        42
    26.8000        52
    26.8200        58
    26.8400        42
    26.8600        36
    26.8800        40
    26.9000        28
    26.9200        38
    26.9400        50
    26.9600        34
    26.9800        42
    27.0000        44
    27.0200        36
    27.0400        46
    27.0600        52
    27.0800        48
    27.1000        44
    27.1200        50
    27.1400        38
    27.1600        44
    27.1800        46
    27.2000        42
    27.2200        36
    27.2400        46
    27.2600        42
    27.2800        46
    27.3000        44
    27.3200        34
    27.3400        34
    27.3600        48
    27.3800        54
    27.4000        50
    27.4200        36
    27.4400        42
    27.4600        48
    27.4800        48
    27.5000        58
    27.5200        70
    27.5400        66
    27.5600        58
    27.5800        58
    27.6000        74
    27.6200        62
    27.6400        84
    27.6600        88
    27.6800       106
    27.7000       168
    27.7200       160
    27.7400       172
    27.7600       190
    27.7800       198
    27.8000       256
    27.8200       250
    27.8400       286
    27.8600       302
    27.8800       372
    27.9000       340
    27.9200       310
    27.9400       352
    27.9600       550
    27.9800       876
    28.0000       828
    28.0200       648
    28.0400       612
    28.0600       580
    28.0800       408
    28.1000       262
    28.1200       206
    28.1400       120
    28.1600        96
    28.1800        76
    28.2000        78
    28.2200        70
    28.2400        68
    28.2600        86
    28.2800        60
    28.3000        42
    28.3200        66
    28.3400        58
    28.3600        64
    28.3800        42
    28.4000        54
    28.4200        68
    28.4400        46
    28.4600        46
    28.4800        46
    28.5000        40
    28.5200        60
    28.5400        42
    28.5600        38
    28.5800        34
    28.6000        36
    28.6200        32
    28.6400        50
    28.6600        42
    28.6800        54
    28.7000        54
    28.7200        50
    28.7400        46
    28.7600        56
    28.7800        60
    28.8000        70
    28.8200        68
    28.8400        72
    28.8600        76
    28.8800       100
    28.9000       128
    28.9200       108
    28.9400       110
    28.9600       134
    28.9800       118
    29.0000       170
    29.0200       184
    29.0400       228
    29.0600       322
    29.0800       534
    29.1000       598
    29.1200       658
    29.1400       924
    29.1600      1214
    29.1800      1522
    29.2000      1450
    29.2200      1280
    29.2400      1112
    29.2600       928
    29.2800       714
    29.3000       536
    29.3200       376
    29.3400       220
    29.3600       196
    29.3800       132
    29.4000       152
    29.4200       166
    29.4400       188
    29.4600       230
    29.4800       384
    29.5000       428
    29.5200       276
    29.5400       306
    29.5600       346
    29.5800       512
    29.6000       762
    29.6200      1070
    29.6400       916
    29.6600       692
    29.6800       614
    29.7000       622
    29.7200       472
    29.7400       272
    29.7600       164
    29.7800       140
    29.8000        64
    29.8200        64
    29.8400        56
    29.8600        54
    29.8800        52
    29.9000        52
    29.9200        52
    29.9400        42
    29.9600        48
    29.9800        46
    30.0000        58
    30.0200        64
    30.0400        42
    30.0600        68
    30.0800        60
    30.1000        60
    30.1200        56
    30.1400        50
    30.1600        44
    30.1800        46
    30.2000        52
    30.2200        46
    30.2400        46
    30.2600        36
    30.2800        36
    30.3000        54
    30.3200        50
    30.3400        48
    30.3600        48
    30.3800        52
    30.4000        46
    30.4200        34
    30.4400        54
    30.4600        40
    30.4800        58
    30.5000        58
    30.5200        64
    30.5400        62
    30.5600        70
    30.5800        48
    30.6000        60
    30.6200        52
    30.6400        42
    30.6600        40
    30.6800        50
    30.7000        46
    30.7200        40
    30.7400        38
    30.7600        44
    30.7800        38
    30.8000        44
    30.8200        42
    30.8400        34
    30.8600        38
    30.8800        38
    30.9000        38
    30.9200        46
    30.9400        40
    30.9600        30
    30.9800        38
    31.0000        38
    31.0200        34
    31.0400        34
    31.0600        38
    31.0800        34
    31.1000        34
    31.1200        30
    31.1400        36
    31.1600        30
    31.1800        42
    31.2000        42
    31.2200        40
    31.2400        42
    31.2600        42
    31.2800        56
    31.3000        62
    31.3200        64
    31.3400        74
    31.3600        88
    31.3800       120
    31.4000       138
    31.4200       160
    31.4400       234
    31.4600       190
    31.4800       160
    31.5000       206
    31.5200       212
    31.5400       170
    31.5600       158
    31.5800       130
    31.6000       112
    31.6200        92
    31.6400        68
    31.6600        68
    31.6800        56
    31.7000        56
    31.7200        56
    31.7400        32
    31.7600        36
    31.7800        38
    31.8000        36
    31.8200        34
    31.8400        40
    31.8600        44
    31.8800        40
    31.9000        38
    31.9200        38
    31.9400        40
    31.9600        42
    31.9800        34
    32.0000        28
    32.0200        38
    32.0400        46
    32.0600        30
    32.0800        38
    32.1000        46
    32.1200        44
    32.1400        44
    32.1600        30
    32.1800        34
    32.2000        32
    32.2200        26
    32.2400        32
    32.2600        36
    32.2800        42
    32.3000        28
    32.3200        36
    32.3400        44
    32.3600        36
    32.3800        38
    32.4000        34
    32.4200        42
    32.4400        34
    32.4600        40
    32.4800        38
    32.5000        58
    32.5200        52
    32.5400        48
    32.5600        50
    32.5800        46
    32.6000        52
    32.6200        64
    32.6400        72
    32.6600        90
    32.6800       162
    32.7000       172
    32.7200       226
    32.7400       176
    32.7600       196
    32.7800       212
    32.8000       236
    32.8200       278
    32.8400       246
    32.8600       216
    32.8800       182
    32.9000       174
    32.9200       168
    32.9400       126
    32.9600        98
    32.9800        82
    33.0000        82
    33.0200        78
    33.0400       104
    33.0600        76
    33.0800       102
    33.1000       102
    33.1200       124
    33.1400       182
    33.1600       294
    33.1800       360
    33.2000       402
    33.2200       492
    33.2400       466
    33.2600       486
    33.2800       590
    33.3000       718
    33.3200       966
    33.3400      1014
    33.3600       848
    33.3800       654
    33.4000       656
    33.4200       596
    33.4400       420
    33.4600       316
    33.4800       192
    33.5000       130
    33.5200        88
    33.5400        98
    33.5600        88
    33.5800        68
    33.6000        50
    33.6200        80
    33.6400        50
    33.6600        50
    33.6800        46
    33.7000        38
    33.7200        42
    33.7400        34
    33.7600        36
    33.7800        38
    33.8000        36
    33.8200        32
    33.8400        50
    33.8600        52
    33.8800        52
    33.9000        54
    33.9200        50
    33.9400        46
    33.9600        46
    33.9800        46
    34.0000        40
    34.0200        22
    34.0400        30
    34.0600        38
    34.0800        32
    34.1000        36
    34.1200        28
    34.1400        32
    34.1600        36
    34.1800        24
    34.2000        42
    34.2200        26
    34.2400        32
    34.2600        40
    34.2800        40
    34.3000        28
    34.3200        38
    34.3400        30
    34.3600        28
    34.3800        18
    34.4000        32
    34.4200        26
    34.4400        36
    34.4600        30
    34.4800        36
    34.5000        40
    34.5200        30
    34.5400        22
    34.5600        28
    34.5800        28
    34.6000        32
    34.6200        22
    34.6400        26
    34.6600        24
    34.6800        36
    34.7000        30
    34.7200        26
    34.7400        34
    34.7600        24
    34.7800        36
    34.8000        44
    34.8200        30
    34.8400        44
    34.8600        34
    34.8800        34
    34.9000        26
    34.9200        38
    34.9400        30
    34.9600        50
    34.9800        38
    35.0000        32
    35.0200        64
    35.0400        82
    35.0600        74
    35.0800        56
    35.1000        74
    35.1200        66
    35.1400        58
    35.1600        60
    35.1800        54
    35.2000        48
    35.2200        30
    35.2400        36
    35.2600        38
    35.2800        40
    35.3000        32
    35.3200        34
    35.3400        36
    35.3600        36
    35.3800        36
    35.4000        32
    35.4200        26
    35.4400        30
    35.4600        46
    35.4800        24
    35.5000        38
    35.5200        44
    35.5400        28
    35.5600        26
    35.5800        28
    35.6000        40
    35.6200        38
    35.6400        48
    35.6600        34
    35.6800        30
    35.7000        44
    35.7200        30
    35.7400        46
    35.7600        52
    35.7800        50
    35.8000        38
    35.8200        32
    35.8400        34
    35.8600        48
    35.8800        44
    35.9000        38
    35.9200        38
    35.9400        22
    35.9600        44
    35.9800        28
    36.0000        34
    36.0200        38
    36.0400        40
    36.0600        24
    36.0800        28
    36.1000        36
    36.1200        30
    36.1400        28
    36.1600        26
    36.1800        24
    36.2000        40
    36.2200        26
    36.2400        32
    36.2600        24
    36.2800        40
    36.3000        32
    36.3200        24
    36.3400        26
    36.3600        36
    36.3800        38
    36.4000        40
    36.4200        28
    36.4400        36
    36.4600        50
    36.4800        26
    36.5000        26
    36.5200        30
    36.5400        26
    36.5600        26
    36.5800        30
    36.6000        42
    36.6200        28
    36.6400        42
    36.6600        24
    36.6800        38
    36.7000        42
    36.7200        34
    36.7400        30
    36.7600        40
    36.7800        36
    36.8000        38
    36.8200        36
    36.8400        42
    36.8600        36
    36.8800        30
    36.9000        40
    36.9200        42
    36.9400        32
    36.9600        26
    36.9800        48
    37.0000        50
    37.0200        40
    37.0400        40
    37.0600        38
    37.0800        52
    37.1000        34
    37.1200        40
    37.1400        40
    37.1600        44
    37.1800        32
    37.2000        52
    37.2200        30
    37.2400        28
    37.2600        38
    37.2800        46
    37.3000        30
    37.3200        36
    37.3400        42
    37.3600        48
    37.3800        42
    37.4000        62
    37.4200        42
    37.4400        48
    37.4600        54
    37.4800        54
    37.5000        48
    37.5200        46
    37.5400        40
    37.5600        50
    37.5800        34
    37.6000        38
    37.6200        34
    37.6400        32
    37.6600        30
    37.6800        36
    37.7000        32
    37.7200        38
    37.7400        52
    37.7600        42
    37.7800        34
    37.8000        38
    37.8200        44
    37.8400        40
    37.8600        38
    37.8800        38
    37.9000        32
    37.9200        38
    37.9400        48
    37.9600        50
    37.9800        48
    38.0000        56
    38.0200        54
    38.0400        58
    38.0600        62
    38.0800        44
    38.1000        54
    38.1200        62
    38.1400        46
    38.1600        50
    38.1800        50
    38.2000        38
    38.2200        36
    38.2400        32
    38.2600        28
    38.2800        28
    38.3000        38
    38.3200        30
    38.3400        38
    38.3600        36
    38.3800        34
    38.4000        28
    38.4200        34
    38.4400        38
    38.4600        32
    38.4800        42
    38.5000        30
    38.5200        30
    38.5400        46
    38.5600        40
    38.5800        28
    38.6000        46
    38.6200        30
    38.6400        30
    38.6600        34
    38.6800        24
    38.7000        38
    38.7200        40
    38.7400        42
    38.7600        48
    38.7800        48
    38.8000        48
    38.8200        34
    38.8400        48
    38.8600        46
    38.8800        64
    38.9000        64
    38.9200        46
    38.9400        54
    38.9600        68
    38.9800        50
    39.0000        68
    39.0200        68
    39.0400        88
    39.0600       142
    39.0800       222
    39.1000       290
    39.1200       258
    39.1400       216
    39.1600       232
    39.1800       254
    39.2000       288
    39.2200       268
    39.2400       226
    39.2600       190
    39.2800       168
    39.3000       144
    39.3200       104
    39.3400       120
    39.3600       110
    39.3800        72
    39.4000        52
    39.4200        60
    39.4400        50
    39.4600        34
    39.4800        48
    39.5000        48
    39.5200        36
    39.5400        44
    39.5600        46
    39.5800        58
    39.6000        74
    39.6200        52
    39.6400        46
    39.6600        48
    39.6800        52
    39.7000        28
    39.7200        46
    39.7400        40
    39.7600        46
    39.7800        30
    39.8000        36
    39.8200        26
    39.8400        34
    39.8600        30
    39.8800        30
    39.9000        32
    39.9200        26
    39.9400        34
    39.9600        36
    39.9800        38
    40.0000        36
    40.0200        22
    40.0400        32
    40.0600        28
    40.0800        28
    40.1000        42
    40.1200        30
    40.1400        30
    40.1600        26
    40.1800        26
    40.2000        28
    40.2200        48
    40.2400        32
    40.2600        28
    40.2800        48
    40.3000        26
    40.3200        22
    40.3400        42
    40.3600        38
    40.3800        28
    40.4000        44
    40.4200        26
    40.4400        26
    40.4600        40
    40.4800        38
    40.5000        42
    40.5200        26
    40.5400        32
    40.5600        28
    40.5800        36
    40.6000        50
    40.6200        28
    40.6400        30
    40.6600        32
    40.6800        34
    40.7000        34
    40.7200        24
    40.7400        32
    40.7600        42
    40.7800        44
    40.8000        46
    40.8200        36
    40.8400        50
    40.8600        38
    40.8800        32
    40.9000        36
    40.9200        58
    40.9400        42
    40.9600        72
    40.9800        94
    41.0000        86
    41.0200        90
    41.0400        72
    41.0600        78
    41.0800        80
    41.1000        84
    41.1200        76
    41.1400        84
    41.1600        64
    41.1800        42
    41.2000        50
    41.2200        50
    41.2400        40
    41.2600        30
    41.2800        40
    41.3000        36
    41.3200        38
    41.3400        28
    41.3600        46
    41.3800        32
    41.4000        38
    41.4200        28
    41.4400        30
    41.4600        28
    41.4800        34
    41.5000        38
    41.5200        38
    41.5400        54
    41.5600        34
    41.5800        30
    41.6000        30
    41.6200        30
    41.6400        38
    41.6600        48
    41.6800        22
    41.7000        30
    41.7200        46
    41.7400        50
    41.7600        32
    41.7800        40
    41.8000        50
    41.8200        46
    41.8400        58
    41.8600        42
    41.8800        64
    41.9000        70
    41.9200        80
    41.9400        72
    41.9600       122
    41.9800       128
    42.0000       216
    42.0200       304
    42.0400       382
    42.0600       314
    42.0800       324
    42.1000       298
    42.1200       298
    42.1400       326
    42.1600       334
    42.1800       386
    42.2000       316
    42.2200       240
    42.2400       154
    42.2600       144
    42.2800       154
    42.3000       162
    42.3200       142
    42.3400        94
    42.3600        88
    42.3800        78
    42.4000        88
    42.4200        94
    42.4400        76
    42.4600        80
    42.4800        92
    42.5000        68
    42.5200        74
    42.5400        60
    42.5600        48
    42.5800        46
    42.6000        48
    42.6200        46
    42.6400        42
    42.6600        38
    42.6800        58
    42.7000        50
    42.7200        54
    42.7400        64
    42.7600        44
    42.7800        48
    42.8000        38
    42.8200        48
    42.8400        52
    42.8600        52
    42.8800        56
    42.9000        38
    42.9200        40
    42.9400        38
    42.9600        30
    42.9800        30
    43.0000        34
    43.0200        38
    43.0400        34
    43.0600        32
    43.0800        26
    43.1000        26
    43.1200        40
    43.1400        36
    43.1600        30
    43.1800        28
    43.2000        22
    43.2200        32
    43.2400        16
    43.2600        40
    43.2800        38
    43.3000        28
    43.3200        38
    43.3400        40
    43.3600        38
    43.3800        32
    43.4000        30
    43.4200        36
    43.4400        40
    43.4600        26
    43.4800        40
    43.5000        26
    43.5200        36
    43.5400        30
    43.5600        38
    43.5800        44
    43.6000        40
    43.6200        46
    43.6400        26
    43.6600        40
    43.6800        54
    43.7000        62
    43.7200        64
    43.7400       106
    43.7600        82
    43.7800        68
    43.8000        62
    43.8200        52
    43.8400        70
    43.8600        62
    43.8800        56
    43.9000        48
    43.9200        46
    43.9400        34
    43.9600        36
    43.9800        38
    44.0000        34
    44.0200        28
    44.0400        22
    44.0600        40
    44.0800        34
    44.1000        42
    44.1200        36
    44.1400        34
    44.1600        30
    44.1800        28
    44.2000        28
    44.2200        30
    44.2400        26
    44.2600        32
    44.2800        28
    44.3000        30
    44.3200        36
    44.3400        32
    44.3600        24
    44.3800        34
    44.4000        46
    44.4200        28
    44.4400        38
    44.4600        28
    44.4800        40
    44.5000        38
    44.5200        36
    44.5400        32
    44.5600        34
    44.5800        24
    44.6000        44
    44.6200        38
    44.6400        38
    44.6600        36
    44.6800        38
    44.7000        40
    44.7200        62
    44.7400        38
    44.7600        58
    44.7800        64
    44.8000        88
    44.8200        66
    44.8400        78
    44.8600        76
    44.8800       112
    44.9000       142
    44.9200       140
    44.9400       108
    44.9600       106
    44.9800        88
    45.0000        70
    45.0200        90
    45.0400        92
    45.0600       106
    45.0800       106
    45.1000        98
    45.1200       106
    45.1400       118
    45.1600       114
    45.1800        78
    45.2000        80
    45.2200        68
    45.2400        80
    45.2600        72
    45.2800        70
    45.3000        54
    45.3200        52
    45.3400        52
    45.3600        46
    45.3800        34
    45.4000        40
    45.4200        34
    45.4400        46
    45.4600        38
    45.4800        32
    45.5000        32
    45.5200        46
    45.5400        36
    45.5600        38
    45.5800        40
    45.6000        26
    45.6200        32
    45.6400        32
    45.6600        34
    45.6800        34
    45.7000        40
    45.7200        36
    45.7400        46
    45.7600        40
    45.7800        48
    45.8000        56
    45.8200        44
    45.8400        40
    45.8600        36
    45.8800        54
    45.9000        58
    45.9200        60
    45.9400        48
    45.9600        44
    45.9800        48
    46.0000        50
    46.0200        26
    46.0400        28
    46.0600        26
    46.0800        30
    46.1000        28
    46.1200        36
    46.1400        36
    46.1600        32
    46.1800        26
    46.2000        32
    46.2200        26
    46.2400        26
    46.2600        26
    46.2800        28
    46.3000        28
    46.3200        32
    46.3400        34
    46.3600        42
    46.3800        36
    46.4000        22
    46.4200        32
    46.4400        32
    46.4600        38
    46.4800        28
    46.5000        36
    46.5200        44
    46.5400        16
    46.5600        32
    46.5800        24
    46.6000        44
    46.6200        32
    46.6400        36
    46.6600        26
    46.6800        34
    46.7000        28
    46.7200        30
    46.7400        40
    46.7600        32
    46.7800        34
    46.8000        34
    46.8200        38
    46.8400        46
    46.8600        42
    46.8800        40
    46.9000        30
    46.9200        34
    46.9400        40
    46.9600        44
    46.9800        54
    47.0000        48
    47.0200        34
    47.0400        60
    47.0600        48
    47.0800        54
    47.1000        40
    47.1200        58
    47.1400        56
    47.1600        58
    47.1800        54
    47.2000        60
    47.2200        78
    47.2400       106
    47.2600       132
    47.2800       152
    47.3000       168
    47.3200       188
    47.3400       178
    47.3600       224
    47.3800       258
    47.4000       248
    47.4200       220
    47.4400       238
    47.4600       378
    47.4800       648
    47.5000       928
    47.5200      1220
    47.5400      1086
    47.5600       800
    47.5800       586
    47.6000       516
    47.6200       528
    47.6400       626
    47.6600       670
    47.6800       558
    47.7000       400
    47.7200       294
    47.7400       222
    47.7600       148
    47.7800       154
    47.8000       134
    47.8200       148
    47.8400       144
    47.8600       136
    47.8800       142
    47.9000       138
    47.9200       144
    47.9400       110
    47.9600       132
    47.9800       106
    48.0000        88
    48.0200        86
    48.0400        76
    48.0600        86
    48.0800        78
    48.1000        68
    48.1200        62
    48.1400        56
    48.1600        50
    48.1800        46
    48.2000        42
    48.2200        44
    48.2400        44
    48.2600        40
    48.2800        38
    48.3000        30
    48.3200        38
    48.3400        46
    48.3600        36
    48.3800        36
    48.4000        26
    48.4200        32
    48.4400        38
    48.4600        30
    48.4800        28
    48.5000        30
    48.5200        40
    48.5400        42
    48.5600        34
    48.5800        34
    48.6000        36
    48.6200        50
    48.6400        44
    48.6600        38
    48.6800        30
    48.7000        30
    48.7200        28
    48.7400        40
    48.7600        24
    48.7800        22
    48.8000        42
    48.8200        34
    48.8400        36
    48.8600        44
    48.8800        28
    48.9000        40
    48.9200        22
    48.9400        42
    48.9600        34
    48.9800        20
    49.0000        38
    49.0200        22
    49.0400        34
    49.0600        44
    49.0800        32
    49.1000        32
    49.1200        38
    49.1400        28
    49.1600        34
    49.1800        38
    49.2000        36
    49.2200        34
    49.2400        32
    49.2600        30
    49.2800        26
    49.3000        36
    49.3200        24
    49.3400        36
    49.3600        28
    49.3800        40
    49.4000        32
    49.4200        32
    49.4400        46
    49.4600        38
    49.4800        42
    49.5000        24
    49.5200        42
    49.5400        38
    49.5600        46
    49.5800        38
    49.6000        38
    49.6200        52
    49.6400        36
    49.6600        26
    49.6800        38
    49.7000        42
    49.7200        48
    49.7400        58
    49.7600        44
    49.7800        66
    49.8000        70
    49.8200        76
    49.8400        64
    49.8600        90
    49.8800        84
    49.9000        72
    49.9200        68
    49.9400        50
    49.9600        54
    49.9800        52
    50.0000        68
    50.0200        66
    50.0400        62
    50.0600        76
    50.0800        98
    50.1000       118
    50.1200       116
    50.1400       134
    50.1600       114
    50.1800       102
    50.2000       104
    50.2200       138
    50.2400       122
    50.2600       106
    50.2800       108
    50.3000        74
    50.3200        64
    50.3400        72
    50.3600        76
    50.3800        76
    50.4000        64
    50.4200        66
    50.4400        52
    50.4600        42
    50.4800        32
    50.5000        40
    50.5200        30
    50.5400        32
    50.5600        36
    50.5800        40
    50.6000        22
    50.6200        38
    50.6400        28
    50.6600        32
    50.6800        38
    50.7000        36
    50.7200        38
    50.7400        34
    50.7600        34
    50.7800        46
    50.8000        36
    50.8200        28
    50.8400        34
    50.8600        34
    50.8800        20
    50.9000        38
    50.9200        36
    50.9400        38
    50.9600        32
    50.9800        36
    51.0000        36
    51.0200        32
    51.0400        28
    51.0600        26
    51.0800        34
    51.1000        38
    51.1200        30
    51.1400        36
    51.1600        36
    51.1800        30
    51.2000        40
    51.2200        34
    51.2400        30
    51.2600        48
    51.2800        36
    51.3000        28
    51.3200        32
    51.3400        42
    51.3600        46
    51.3800        36
    51.4000        52
    51.4200        42
    51.4400        40
    51.4600        36
    51.4800        30
    51.5000        38
    51.5200        42
    51.5400        30
    51.5600        18
    51.5800        32
    51.6000        30
    51.6200        24
    51.6400        32
    51.6600        30
    51.6800        34
    51.7000        22
    51.7200        20
    51.7400        36
    51.7600        36
    51.7800        36
    51.8000        30
    51.8200        32
    51.8400        28
    51.8600        26
    51.8800        28
    51.9000        30
    51.9200        34
    51.9400        40
    51.9600        34
    51.9800        40
    52.0000        32
    52.0200        32
    52.0400        44
    52.0600        58
    52.0800        46
    52.1000        32
    52.1200        52
    52.1400        48
    52.1600        58
    52.1800        46
    52.2000        88
    52.2200        96
    52.2400        92
    52.2600        86
    52.2800        68
    52.3000       106
    52.3200       104
    52.3400       114
    52.3600       126
    52.3800       116
    52.4000       108
    52.4200       110
    52.4400       110
    52.4600        72
    52.4800        78
    52.5000        76
    52.5200        64
    52.5400        60
    52.5600        60
    52.5800        46
    52.6000        46
    52.6200        44
    52.6400        40
    52.6600        46
    52.6800        36
    52.7000        30
    52.7200        44
    52.7400        30
    52.7600        38
    52.7800        36
    52.8000        46
    52.8200        28
    52.8400        32
    52.8600        36
    52.8800        50
    52.9000        42
    52.9200        24
    52.9400        34
    52.9600        30
    52.9800        40
    53.0000        42
    53.0200        34
    53.0400        38
    53.0600        30
    53.0800        30
    53.1000        38
    53.1200        48
    53.1400        60
    53.1600        60
    53.1800        56
    53.2000        42
    53.2200        54
    53.2400        58
    53.2600        48
    53.2800        46
    53.3000        46
    53.3200        46
    53.3400        44
    53.3600        62
    53.3800        44
    53.4000        50
    53.4200        44
    53.4400        40
    53.4600        36
    53.4800        36
    53.5000        26
    53.5200        46
    53.5400        44
    53.5600        48
    53.5800        46
    53.6000        56
    53.6200        74
    53.6400       106
    53.6600       106
    53.6800       162
    53.7000       140
    53.7200       184
    53.7400       166
    53.7600       150
    53.7800       138
    53.8000       142
    53.8200       124
    53.8400       114
    53.8600        94
    53.8800       104
    53.9000        74
    53.9200        84
    53.9400        80
    53.9600        58
    53.9800        52
    54.0000        42
    54.0200        38
    54.0400        36
    54.0600        30
    54.0800        42
    54.1000        50
    54.1200        34
    54.1400        40
    54.1600        34
    54.1800        36
    54.2000        40
    54.2200        58
    54.2400        32
    54.2600        30
    54.2800        44
    54.3000        38
    54.3200        50
    54.3400        66
    54.3600        46
    54.3800        50
    54.4000        54
    54.4200        38
    54.4400        48
    54.4600        46
    54.4800        42
    54.5000        56
    54.5200        44
    54.5400        42
    54.5600        44
    54.5800        44
    54.6000        34
    54.6200        44
    54.6400        54
    54.6600        42
    54.6800        52
    54.7000        52
    54.7200        44
    54.7400        36
    54.7600        32
    54.7800        50
    54.8000        50
    54.8200        62
    54.8400        70
    54.8600        80
    54.8800        64
    54.9000        64
    54.9200        42
    54.9400        50
    54.9600        42
    54.9800        52
    55.0000        60
    55.0200        42
    55.0400        30
    55.0600        38
    55.0800        32
    55.1000        38
    55.1200        34
    55.1400        46
    55.1600        32
    55.1800        38
    55.2000        38
    55.2200        34
    55.2400        48
    55.2600        32
    55.2800        36
    55.3000        34
    55.3200        28
    55.3400        40
    55.3600        40
    55.3800        30
    55.4000        48
    55.4200        34
    55.4400        20
    55.4600        26
    55.4800        22
    55.5000        34
    55.5200        30
    55.5400        26
    55.5600        22
    55.5800        26
    55.6000        30
    55.6200        28
    55.6400        32
    55.6600        32
    55.6800        34
    55.7000        30
    55.7200        24
    55.7400        18
    55.7600        26
    55.7800        32
    55.8000        24
    55.8200        30
    55.8400        28
    55.8600        28
    55.8800        24
    55.9000        18
    55.9200        22
    55.9400        40
    55.9600        34
    55.9800        40
    56.0000        18
    56.0200        26
    56.0400        24
    56.0600        28
    56.0800        26
    56.1000        28
    56.1200        26
    56.1400        28
    56.1600        28
    56.1800        30
    56.2000        24
    56.2200        42
    56.2400        26
    56.2600        32
    56.2800        32
    56.3000        30
    56.3200        28
    56.3400        32
    56.3600        32
    56.3800        30
    56.4000        28
    56.4200        28
    56.4400        34
    56.4600        32
    56.4800        24
    56.5000        22
    56.5200        36
    56.5400        38
    56.5600        26
    56.5800        42
    56.6000        20
    56.6200        28
    56.6400        26
    56.6600        22
    56.6800        36
    56.7000        24
    56.7200        36
    56.7400        36
    56.7600        48
    56.7800        58
    56.8000        54
    56.8200        76
    56.8400        86
    56.8600       110
    56.8800       100
    56.9000        80
    56.9200        96
    56.9400        72
    56.9600        60
    56.9800        54
    57.0000        52
    57.0200        56
    57.0400        62
    57.0600        48
    57.0800        50
    57.1000        52
    57.1200        28
    57.1400        24
    57.1600        42
    57.1800        38
    57.2000        32
    57.2200        38
    57.2400        38
    57.2600        46
    57.2800        72
    57.3000        70
    57.3200        86
    57.3400        58
    57.3600        66
    57.3800        40
    57.4000        42
    57.4200        66
    57.4400        50
    57.4600        54
    57.4800        62
    57.5000        64
    57.5200        42
    57.5400        50
    57.5600        44
    57.5800        30
    57.6000        32
    57.6200        34
    57.6400        32
    57.6600        26
    57.6800        32
    57.7000        34
    57.7200        42
    57.7400        38
    57.7600        44
    57.7800        30
    57.8000        32
    57.8200        44
    57.8400        42
    57.8600        42
    57.8800        30
    57.9000        34
    57.9200        48
    57.9400        28
    57.9600        20
    57.9800        38
    58.0000        24
    58.0200        28
    58.0400        28
    58.0600        40
    58.0800        32
    58.1000        24
    58.1200        36
    58.1400        40
    58.1600        48
    58.1800        36
    58.2000        34
    58.2200        52
    58.2400        98
    58.2600        48
    58.2800        48
    58.3000        46
    58.3200        46
    58.3400        40
    58.3600        46
    58.3800        42
    58.4000        52
    58.4200        54
    58.4400        56
    58.4600        36
    58.4800        36
    58.5000        50
    58.5200        44
    58.5400        38
    58.5600        42
    58.5800        54
    58.6000        34
    58.6200        44
    58.6400        54
    58.6600        44
    58.6800        30
    58.7000        32
    58.7200        46
    58.7400        30
    58.7600        34
    58.7800        50
    58.8000        30
    58.8200        54
    58.8400        42
    58.8600        32
    58.8800        34
    58.9000        44
    58.9200        38
    58.9400        38
    58.9600        34
    58.9800        38
    59.0000        44
    59.0200        52
    59.0400        60
    59.0600        58
    59.0800        68
    59.1000        86
    59.1200       112
    59.1400       206
    59.1600       270
    59.1800       232
    59.2000       186
    59.2200       132
    59.2400       136
    59.2600        98
    59.2800       102
    59.3000       144
    59.3200       170
    59.3400       174
    59.3600       166
    59.3800       146
    59.4000       130
    59.4200       100
    59.4400        90
    59.4600        72
    59.4800        90
    59.5000        68
    59.5200        70
    59.5400        76
    59.5600        78
    59.5800        86
    59.6000        70
    59.6200        48
    59.6400        42
    59.6600        50
    59.6800        44
    59.7000        34
    59.7200        28
    59.7400        24
    59.7600        38
    59.7800        30
    59.8000        32
    59.8200        26
    59.8400        32
    59.8600        42
    59.8800        20
    59.9000        30
    59.9200        28
    59.9400        32
    59.9600        32
    59.9800        26
    60.0000        32
    60.0200        24
    60.0400        26
    60.0600        34
    60.0800        28
    60.1000        30
    60.1200        32
    60.1400        38
    60.1600        20
    60.1800        32
    60.2000        38
    60.2200        32
    60.2400        30
    60.2600        22
    60.2800        36
    60.3000        26
    60.3200        38
    60.3400        28
    60.3600        36
    60.3800        20
    60.4000        44
    60.4200        34
    60.4400        38
    60.4600        32
    60.4800        40
    60.5000        28
    60.5200        28
    60.5400        38
    60.5600        32
    60.5800        54
    60.6000        34
    60.6200        36
    60.6400        42
    60.6600        34
    60.6800        26
    60.7000        32
    60.7200        34
    60.7400        38
    60.7600        26
    60.7800        38
    60.8000        36
    60.8200        36
    60.8400        28
    60.8600        26
    60.8800        32
    60.9000        36
    60.9200        34
    60.9400        36
    60.9600        32
    60.9800        30
    61.0000        36
    61.0200        40
    61.0400        28
    61.0600        44
    61.0800        32
    61.1000        34
    61.1200        46
    61.1400        50
    61.1600        56
    61.1800        64
    61.2000        86
    61.2200        72
    61.2400        86
    61.2600       156
    61.2800       268
    61.3000       338
    61.3200       290
    61.3400       228
    61.3600       168
    61.3800       100
    61.4000        90
    61.4200        92
    61.4400       110
    61.4600       154
    61.4800       186
    61.5000       146
    61.5200        90
    61.5400        66
    61.5600        58
    61.5800        44
    61.6000        46
    61.6200        56
    61.6400        44
    61.6600        26
    61.6800        38
    61.7000        38
    61.7200        28
    61.7400        38
    61.7600        36
    61.7800        36
    61.8000        42
    61.8200        46
    61.8400        28
    61.8600        28
    61.8800        26
    61.9000        34
    61.9200        40
    61.9400        34
    61.9600        26
    61.9800        34
    62.0000        28
    62.0200        28
    62.0400        26
    62.0600        40
    62.0800        26
    62.1000        30
    62.1200        36
    62.1400        36
    62.1600        36
    62.1800        38
    62.2000        24
    62.2200        30
    62.2400        50
    62.2600        32
    62.2800        28
    62.3000        28
    62.3200        20
    62.3400        40
    62.3600        32
    62.3800        34
    62.4000        40
    62.4200        34
    62.4400        28
    62.4600        30
    62.4800        42
    62.5000        38
    62.5200        32
    62.5400        36
    62.5600        32
    62.5800        36
    62.6000        38
    62.6200        30
    62.6400        42
    62.6600        48
    62.6800        52
    62.7000        62
    62.7200        66
    62.7400        82
    62.7600        54
    62.7800        68
    62.8000        50
    62.8200        56
    62.8400        62
    62.8600        50
    62.8800        64
    62.9000        46
    62.9200        38
    62.9400        54
    62.9600        58
    62.9800        36
    63.0000        38
    63.0200        42
    63.0400        32
    63.0600        44
    63.0800        38
    63.1000        34
    63.1200        38
    63.1400        38
    63.1600        28
    63.1800        38
    63.2000        42
    63.2200        54
    63.2400        48
    63.2600        66
    63.2800        68
    63.3000        74
    63.3200        82
    63.3400        84
    63.3600       112
    63.3800        96
    63.4000        52
    63.4200        60
    63.4400        64
    63.4600        66
    63.4800        84
    63.5000        78
    63.5200        92
    63.5400        88
    63.5600        94
    63.5800       124
    63.6000       116
    63.6200       116
    63.6400       136
    63.6600       114
    63.6800       122
    63.7000        88
    63.7200        90
    63.7400        82
    63.7600        70
    63.7800       102
    63.8000        98
    63.8200        88
    63.8400        84
    63.8600        72
    63.8800        56
    63.9000        46
    63.9200        52
    63.9400        40
    63.9600        56
    63.9800        40
    64.0000        46
    64.0200        42
    64.0400        40
    64.0600        28
    64.0800        22
    64.1000        28
    64.1200        38
    64.1400        28
    64.1600        36
    64.1800        24
    64.2000        28
    64.2200        22
    64.2400        24
    64.2600        24
    64.2800        32
    64.3000        28
    64.3200        28
    64.3400        34
    64.3600        32
    64.3800        34
    64.4000        36
    64.4200        42
    64.4400        30
    64.4600        32
    64.4800        28
    64.5000        36
    64.5200        42
    64.5400        22
    64.5600        38
    64.5800        30
    64.6000        34
    64.6200        32
    64.6400        34
    64.6600        32
    64.6800        36
    64.7000        40
    64.7200        32
    64.7400        32
    64.7600        34
    64.7800        32
    64.8000        28
    64.8200        28
    64.8400        30
    64.8600        26
    64.8800        42
    64.9000        24
    64.9200        32
    64.9400        28
    64.9600        32
    64.9800        30
    65.0000        34
