/////////////////////////////////////////////////////////////////////////////////
/// Profile Data Ascii Dump (XRD)                                             ///
/////////////////////////////////////////////////////////////////////////////////

  Group     : Swayze
  Data      : GDS444
  File Name : GDS444.RAW

# Profile Datafile
          comment             = Aragonite-CO 
          date & time         = 08-04-29 08:45:48 

# Measurement Condition
    X-ray tube
          target              = Cu 
          voltage             = 40.0 (kV)
          current             = 30.0 (mA)
    Slits
          divergence slit     = 2.00000 (deg) 
          scatter slit        = 2.00000 (deg) 
          receiving slit      = 0.15000 (mm)  
    Scanning
          drive axis          = Theta-2Theta 
          scan range          =    4.000 -   65.000 
          scan mode           = Continuous Scan 
          scan speed          =   2.0000 (deg/min) 
          sampling pitch      =   0.0200 (deg) 
          preset time         =   0.60 (sec) 

# Data      [ Total No. = 3051 ]
  <2Theta>   <   I   >
     4.0000       198
     4.0200       182
     4.0400       184
     4.0600       186
     4.0800       196
     4.1000       172
     4.1200       186
     4.1400       172
     4.1600       198
     4.1800       170
     4.2000       184
     4.2200       172
     4.2400       178
     4.2600       176
     4.2800       140
     4.3000       170
     4.3200       142
     4.3400       168
     4.3600       144
     4.3800       166
     4.4000       176
     4.4200       172
     4.4400       178
     4.4600       144
     4.4800       138
     4.5000       146
     4.5200       160
     4.5400       150
     4.5600       164
     4.5800       132
     4.6000       148
     4.6200       128
     4.6400       176
     4.6600       164
     4.6800       162
     4.7000       154
     4.7200       174
     4.7400       148
     4.7600       178
     4.7800       164
     4.8000       144
     4.8200       142
     4.8400       156
     4.8600       144
     4.8800       150
     4.9000       150
     4.9200       130
     4.9400       162
     4.9600       178
     4.9800       140
     5.0000       174
     5.0200       150
     5.0400       170
     5.0600       156
     5.0800       158
     5.1000       156
     5.1200       148
     5.1400       158
     5.1600       158
     5.1800       144
     5.2000       152
     5.2200       134
     5.2400       158
     5.2600       156
     5.2800       162
     5.3000       180
     5.3200       140
     5.3400       162
     5.3600       144
     5.3800       158
     5.4000       148
     5.4200       134
     5.4400       168
     5.4600       162
     5.4800       154
     5.5000       154
     5.5200       168
     5.5400       138
     5.5600       152
     5.5800       142
     5.6000       138
     5.6200       178
     5.6400       128
     5.6600       168
     5.6800       154
     5.7000       160
     5.7200       166
     5.7400       154
     5.7600       160
     5.7800       142
     5.8000       156
     5.8200       174
     5.8400       170
     5.8600       132
     5.8800       140
     5.9000       156
     5.9200       138
     5.9400       158
     5.9600       144
     5.9800       170
     6.0000       182
     6.0200       134
     6.0400       136
     6.0600       164
     6.0800       152
     6.1000       152
     6.1200       162
     6.1400       146
     6.1600       132
     6.1800       146
     6.2000       152
     6.2200       128
     6.2400       156
     6.2600       120
     6.2800       138
     6.3000       128
     6.3200       138
     6.3400       136
     6.3600       156
     6.3800       134
     6.4000       130
     6.4200       148
     6.4400       124
     6.4600       142
     6.4800       136
     6.5000       130
     6.5200       130
     6.5400       140
     6.5600       156
     6.5800       124
     6.6000       124
     6.6200       100
     6.6400       110
     6.6600       130
     6.6800       126
     6.7000       118
     6.7200       126
     6.7400       118
     6.7600       130
     6.7800       118
     6.8000       108
     6.8200       102
     6.8400       112
     6.8600       122
     6.8800       118
     6.9000       112
     6.9200       106
     6.9400       130
     6.9600       130
     6.9800       106
     7.0000       110
     7.0200        90
     7.0400        96
     7.0600       102
     7.0800       130
     7.1000       132
     7.1200       104
     7.1400       114
     7.1600       132
     7.1800        96
     7.2000       126
     7.2200       100
     7.2400        90
     7.2600       116
     7.2800       124
     7.3000       114
     7.3200       134
     7.3400       106
     7.3600       108
     7.3800       100
     7.4000       116
     7.4200       126
     7.4400       106
     7.4600       112
     7.4800       112
     7.5000       138
     7.5200       102
     7.5400        94
     7.5600       110
     7.5800        98
     7.6000       102
     7.6200       110
     7.6400       120
     7.6600       106
     7.6800       100
     7.7000       102
     7.7200       104
     7.7400       106
     7.7600        90
     7.7800       136
     7.8000       114
     7.8200       116
     7.8400       126
     7.8600       104
     7.8800       104
     7.9000       104
     7.9200       106
     7.9400        98
     7.9600       118
     7.9800        88
     8.0000        96
     8.0200       108
     8.0400        96
     8.0600        96
     8.0800       108
     8.1000       112
     8.1200        94
     8.1400       104
     8.1600       116
     8.1800       104
     8.2000       122
     8.2200       120
     8.2400       120
     8.2600       102
     8.2800       108
     8.3000       110
     8.3200        88
     8.3400       106
     8.3600        92
     8.3800        88
     8.4000       130
     8.4200       120
     8.4400        82
     8.4600       100
     8.4800       106
     8.5000       112
     8.5200       112
     8.5400       128
     8.5600       112
     8.5800       106
     8.6000       114
     8.6200        92
     8.6400       106
     8.6600       104
     8.6800       108
     8.7000       110
     8.7200       106
     8.7400       106
     8.7600       112
     8.7800       112
     8.8000       108
     8.8200       114
     8.8400       124
     8.8600       102
     8.8800       114
     8.9000       114
     8.9200       108
     8.9400       134
     8.9600       116
     8.9800        94
     9.0000       114
     9.0200       102
     9.0400       108
     9.0600       116
     9.0800        96
     9.1000       114
     9.1200       102
     9.1400       126
     9.1600        90
     9.1800       104
     9.2000        88
     9.2200       120
     9.2400       120
     9.2600        98
     9.2800       116
     9.3000       116
     9.3200       112
     9.3400       110
     9.3600       118
     9.3800       122
     9.4000       118
     9.4200       114
     9.4400       108
     9.4600        94
     9.4800       106
     9.5000       106
     9.5200       106
     9.5400       106
     9.5600       112
     9.5800       128
     9.6000       104
     9.6200       102
     9.6400       106
     9.6600       122
     9.6800        92
     9.7000       104
     9.7200        96
     9.7400        84
     9.7600        78
     9.7800        88
     9.8000       118
     9.8200       100
     9.8400        92
     9.8600        94
     9.8800       102
     9.9000       100
     9.9200        86
     9.9400        98
     9.9600       104
     9.9800       102
    10.0000       104
    10.0200       104
    10.0400       100
    10.0600       102
    10.0800        84
    10.1000        94
    10.1200        84
    10.1400       106
    10.1600       102
    10.1800        98
    10.2000       104
    10.2200       100
    10.2400        88
    10.2600        88
    10.2800       102
    10.3000        82
    10.3200        80
    10.3400       104
    10.3600        86
    10.3800        74
    10.4000        94
    10.4200        92
    10.4400       100
    10.4600        94
    10.4800       102
    10.5000        96
    10.5200        90
    10.5400       102
    10.5600        96
    10.5800        84
    10.6000        84
    10.6200        98
    10.6400        86
    10.6600        92
    10.6800        74
    10.7000       102
    10.7200        88
    10.7400        90
    10.7600        94
    10.7800        86
    10.8000       110
    10.8200        84
    10.8400        84
    10.8600        72
    10.8800       100
    10.9000        86
    10.9200        90
    10.9400        76
    10.9600        84
    10.9800        78
    11.0000        82
    11.0200        68
    11.0400        76
    11.0600        76
    11.0800        94
    11.1000        92
    11.1200        86
    11.1400       104
    11.1600        92
    11.1800        76
    11.2000        78
    11.2200        50
    11.2400        86
    11.2600        82
    11.2800        96
    11.3000        90
    11.3200        82
    11.3400        76
    11.3600        66
    11.3800        86
    11.4000        78
    11.4200        74
    11.4400        82
    11.4600        78
    11.4800        60
    11.5000        74
    11.5200        76
    11.5400        84
    11.5600        74
    11.5800        80
    11.6000        70
    11.6200        62
    11.6400        76
    11.6600        80
    11.6800        94
    11.7000        92
    11.7200        64
    11.7400        74
    11.7600        86
    11.7800        80
    11.8000        82
    11.8200        86
    11.8400        64
    11.8600        68
    11.8800        68
    11.9000        78
    11.9200        68
    11.9400        92
    11.9600        86
    11.9800        54
    12.0000        56
    12.0200        68
    12.0400        76
    12.0600        72
    12.0800        76
    12.1000        80
    12.1200        78
    12.1400       104
    12.1600        70
    12.1800        60
    12.2000        66
    12.2200        78
    12.2400        74
    12.2600        70
    12.2800        82
    12.3000        76
    12.3200        78
    12.3400        76
    12.3600        62
    12.3800        66
    12.4000        56
    12.4200        78
    12.4400        72
    12.4600        70
    12.4800        58
    12.5000        74
    12.5200        60
    12.5400        76
    12.5600        70
    12.5800        70
    12.6000        86
    12.6200        70
    12.6400        66
    12.6600        68
    12.6800        66
    12.7000        70
    12.7200        68
    12.7400        78
    12.7600        76
    12.7800        62
    12.8000        68
    12.8200        56
    12.8400        60
    12.8600        62
    12.8800        64
    12.9000        74
    12.9200        64
    12.9400        66
    12.9600        62
    12.9800        74
    13.0000        56
    13.0200        56
    13.0400        62
    13.0600        50
    13.0800        78
    13.1000        64
    13.1200        72
    13.1400        70
    13.1600        66
    13.1800        66
    13.2000        64
    13.2200        62
    13.2400        60
    13.2600        66
    13.2800        64
    13.3000        68
    13.3200        62
    13.3400        68
    13.3600        58
    13.3800        76
    13.4000        74
    13.4200        54
    13.4400        60
    13.4600        64
    13.4800        54
    13.5000        62
    13.5200        60
    13.5400        56
    13.5600        44
    13.5800        56
    13.6000        62
    13.6200        62
    13.6400        62
    13.6600        64
    13.6800        52
    13.7000        62
    13.7200        54
    13.7400        62
    13.7600        68
    13.7800        60
    13.8000        70
    13.8200        68
    13.8400        58
    13.8600        58
    13.8800        72
    13.9000        58
    13.9200        58
    13.9400        70
    13.9600        72
    13.9800        62
    14.0000        56
    14.0200        62
    14.0400        56
    14.0600        62
    14.0800        58
    14.1000        48
    14.1200        66
    14.1400        58
    14.1600        66
    14.1800        58
    14.2000        64
    14.2200        54
    14.2400        66
    14.2600        50
    14.2800        60
    14.3000        54
    14.3200        52
    14.3400        68
    14.3600        64
    14.3800        58
    14.4000        48
    14.4200        54
    14.4400        54
    14.4600        46
    14.4800        68
    14.5000        56
    14.5200        58
    14.5400        58
    14.5600        62
    14.5800        62
    14.6000        66
    14.6200        60
    14.6400        52
    14.6600        68
    14.6800        56
    14.7000        52
    14.7200        58
    14.7400        62
    14.7600        66
    14.7800        48
    14.8000        56
    14.8200        52
    14.8400        50
    14.8600        52
    14.8800        58
    14.9000        50
    14.9200        50
    14.9400        60
    14.9600        58
    14.9800        74
    15.0000        44
    15.0200        66
    15.0400        62
    15.0600        50
    15.0800        56
    15.1000        64
    15.1200        66
    15.1400        50
    15.1600        48
    15.1800        50
    15.2000        50
    15.2200        54
    15.2400        56
    15.2600        52
    15.2800        52
    15.3000        52
    15.3200        46
    15.3400        48
    15.3600        54
    15.3800        54
    15.4000        52
    15.4200        46
    15.4400        50
    15.4600        46
    15.4800        52
    15.5000        46
    15.5200        40
    15.5400        54
    15.5600        50
    15.5800        68
    15.6000        68
    15.6200        52
    15.6400        38
    15.6600        66
    15.6800        52
    15.7000        60
    15.7200        38
    15.7400        70
    15.7600        44
    15.7800        62
    15.8000        44
    15.8200        56
    15.8400        56
    15.8600        66
    15.8800        40
    15.9000        52
    15.9200        54
    15.9400        56
    15.9600        62
    15.9800        56
    16.0000        36
    16.0200        44
    16.0400        54
    16.0600        48
    16.0800        60
    16.1000        58
    16.1200        36
    16.1400        36
    16.1600        40
    16.1800        48
    16.2000        58
    16.2200        56
    16.2400        50
    16.2600        48
    16.2800        48
    16.3000        50
    16.3200        68
    16.3400        54
    16.3600        44
    16.3800        48
    16.4000        48
    16.4200        44
    16.4400        56
    16.4600        56
    16.4800        42
    16.5000        48
    16.5200        42
    16.5400        46
    16.5600        42
    16.5800        48
    16.6000        48
    16.6200        36
    16.6400        48
    16.6600        56
    16.6800        48
    16.7000        48
    16.7200        62
    16.7400        46
    16.7600        34
    16.7800        42
    16.8000        38
    16.8200        66
    16.8400        42
    16.8600        38
    16.8800        50
    16.9000        56
    16.9200        52
    16.9400        44
    16.9600        38
    16.9800        38
    17.0000        26
    17.0200        54
    17.0400        56
    17.0600        50
    17.0800        44
    17.1000        48
    17.1200        54
    17.1400        40
    17.1600        34
    17.1800        44
    17.2000        52
    17.2200        56
    17.2400        36
    17.2600        44
    17.2800        40
    17.3000        38
    17.3200        58
    17.3400        44
    17.3600        30
    17.3800        28
    17.4000        56
    17.4200        46
    17.4400        46
    17.4600        46
    17.4800        38
    17.5000        46
    17.5200        38
    17.5400        56
    17.5600        56
    17.5800        44
    17.6000        40
    17.6200        46
    17.6400        34
    17.6600        50
    17.6800        42
    17.7000        46
    17.7200        44
    17.7400        44
    17.7600        44
    17.7800        56
    17.8000        54
    17.8200        42
    17.8400        38
    17.8600        40
    17.8800        46
    17.9000        46
    17.9200        64
    17.9400        28
    17.9600        52
    17.9800        44
    18.0000        44
    18.0200        48
    18.0400        36
    18.0600        46
    18.0800        30
    18.1000        46
    18.1200        46
    18.1400        42
    18.1600        40
    18.1800        46
    18.2000        34
    18.2200        32
    18.2400        34
    18.2600        42
    18.2800        40
    18.3000        30
    18.3200        52
    18.3400        42
    18.3600        46
    18.3800        54
    18.4000        54
    18.4200        44
    18.4400        30
    18.4600        32
    18.4800        46
    18.5000        38
    18.5200        40
    18.5400        44
    18.5600        42
    18.5800        32
    18.6000        46
    18.6200        36
    18.6400        56
    18.6600        44
    18.6800        52
    18.7000        34
    18.7200        42
    18.7400        50
    18.7600        50
    18.7800        34
    18.8000        38
    18.8200        44
    18.8400        36
    18.8600        50
    18.8800        40
    18.9000        50
    18.9200        44
    18.9400        34
    18.9600        34
    18.9800        62
    19.0000        48
    19.0200        40
    19.0400        44
    19.0600        46
    19.0800        36
    19.1000        48
    19.1200        44
    19.1400        40
    19.1600        44
    19.1800        38
    19.2000        44
    19.2200        34
    19.2400        52
    19.2600        46
    19.2800        38
    19.3000        48
    19.3200        34
    19.3400        44
    19.3600        30
    19.3800        46
    19.4000        40
    19.4200        40
    19.4400        42
    19.4600        46
    19.4800        38
    19.5000        34
    19.5200        42
    19.5400        44
    19.5600        36
    19.5800        38
    19.6000        44
    19.6200        44
    19.6400        54
    19.6600        40
    19.6800        36
    19.7000        34
    19.7200        42
    19.7400        42
    19.7600        36
    19.7800        46
    19.8000        46
    19.8200        38
    19.8400        40
    19.8600        54
    19.8800        42
    19.9000        44
    19.9200        32
    19.9400        38
    19.9600        28
    19.9800        38
    20.0000        34
    20.0200        36
    20.0400        46
    20.0600        34
    20.0800        40
    20.1000        44
    20.1200        42
    20.1400        40
    20.1600        34
    20.1800        34
    20.2000        40
    20.2200        32
    20.2400        42
    20.2600        38
    20.2800        46
    20.3000        38
    20.3200        44
    20.3400        34
    20.3600        30
    20.3800        48
    20.4000        36
    20.4200        38
    20.4400        36
    20.4600        36
    20.4800        46
    20.5000        26
    20.5200        40
    20.5400        36
    20.5600        28
    20.5800        48
    20.6000        34
    20.6200        36
    20.6400        42
    20.6600        52
    20.6800        44
    20.7000        44
    20.7200        40
    20.7400        38
    20.7600        42
    20.7800        50
    20.8000        40
    20.8200        34
    20.8400        40
    20.8600        40
    20.8800        30
    20.9000        40
    20.9200        46
    20.9400        48
    20.9600        50
    20.9800        38
    21.0000        42
    21.0200        42
    21.0400        32
    21.0600        38
    21.0800        40
    21.1000        32
    21.1200        46
    21.1400        36
    21.1600        22
    21.1800        36
    21.2000        38
    21.2200        28
    21.2400        32
    21.2600        34
    21.2800        40
    21.3000        36
    21.3200        56
    21.3400        36
    21.3600        36
    21.3800        48
    21.4000        42
    21.4200        26
    21.4400        34
    21.4600        36
    21.4800        32
    21.5000        42
    21.5200        42
    21.5400        36
    21.5600        40
    21.5800        32
    21.6000        32
    21.6200        34
    21.6400        38
    21.6600        46
    21.6800        42
    21.7000        44
    21.7200        48
    21.7400        42
    21.7600        38
    21.7800        32
    21.8000        38
    21.8200        40
    21.8400        32
    21.8600        50
    21.8800        30
    21.9000        30
    21.9200        48
    21.9400        32
    21.9600        28
    21.9800        36
    22.0000        40
    22.0200        30
    22.0400        48
    22.0600        50
    22.0800        32
    22.1000        36
    22.1200        42
    22.1400        48
    22.1600        36
    22.1800        24
    22.2000        34
    22.2200        30
    22.2400        46
    22.2600        22
    22.2800        36
    22.3000        38
    22.3200        38
    22.3400        32
    22.3600        48
    22.3800        40
    22.4000        28
    22.4200        40
    22.4400        40
    22.4600        46
    22.4800        54
    22.5000        34
    22.5200        52
    22.5400        32
    22.5600        36
    22.5800        46
    22.6000        38
    22.6200        36
    22.6400        54
    22.6600        50
    22.6800        58
    22.7000        44
    22.7200        62
    22.7400        68
    22.7600        66
    22.7800        60
    22.8000        92
    22.8200       100
    22.8400       102
    22.8600       110
    22.8800       118
    22.9000       140
    22.9200       158
    22.9400       192
    22.9600       178
    22.9800       212
    23.0000       192
    23.0200       178
    23.0400       168
    23.0600       132
    23.0800       126
    23.1000        98
    23.1200        62
    23.1400        66
    23.1600        42
    23.1800        38
    23.2000        34
    23.2200        46
    23.2400        38
    23.2600        36
    23.2800        34
    23.3000        44
    23.3200        34
    23.3400        32
    23.3600        38
    23.3800        38
    23.4000        48
    23.4200        44
    23.4400        28
    23.4600        34
    23.4800        30
    23.5000        34
    23.5200        42
    23.5400        34
    23.5600        28
    23.5800        32
    23.6000        32
    23.6200        36
    23.6400        28
    23.6600        38
    23.6800        36
    23.7000        34
    23.7200        34
    23.7400        32
    23.7600        40
    23.7800        26
    23.8000        36
    23.8200        36
    23.8400        28
    23.8600        36
    23.8800        36
    23.9000        32
    23.9200        26
    23.9400        28
    23.9600        38
    23.9800        26
    24.0000        30
    24.0200        32
    24.0400        26
    24.0600        26
    24.0800        28
    24.1000        42
    24.1200        26
    24.1400        30
    24.1600        38
    24.1800        30
    24.2000        40
    24.2200        32
    24.2400        30
    24.2600        32
    24.2800        26
    24.3000        28
    24.3200        38
    24.3400        28
    24.3600        24
    24.3800        36
    24.4000        22
    24.4200        44
    24.4400        34
    24.4600        30
    24.4800        44
    24.5000        36
    24.5200        28
    24.5400        30
    24.5600        26
    24.5800        32
    24.6000        38
    24.6200        30
    24.6400        36
    24.6600        40
    24.6800        28
    24.7000        40
    24.7200        40
    24.7400        22
    24.7600        36
    24.7800        38
    24.8000        32
    24.8200        32
    24.8400        24
    24.8600        34
    24.8800        22
    24.9000        30
    24.9200        36
    24.9400        24
    24.9600        34
    24.9800        26
    25.0000        30
    25.0200        24
    25.0400        34
    25.0600        28
    25.0800        30
    25.1000        32
    25.1200        34
    25.1400        38
    25.1600        46
    25.1800        32
    25.2000        40
    25.2200        28
    25.2400        24
    25.2600        30
    25.2800        38
    25.3000        22
    25.3200        28
    25.3400        30
    25.3600        32
    25.3800        36
    25.4000        42
    25.4200        36
    25.4400        30
    25.4600        44
    25.4800        32
    25.5000        26
    25.5200        34
    25.5400        30
    25.5600        34
    25.5800        32
    25.6000        40
    25.6200        38
    25.6400        32
    25.6600        30
    25.6800        28
    25.7000        38
    25.7200        40
    25.7400        30
    25.7600        24
    25.7800        36
    25.8000        34
    25.8200        32
    25.8400        44
    25.8600        50
    25.8800        42
    25.9000        32
    25.9200        50
    25.9400        36
    25.9600        44
    25.9800        48
    26.0000        54
    26.0200        48
    26.0400        64
    26.0600        64
    26.0800        80
    26.1000       118
    26.1200       150
    26.1400       130
    26.1600       120
    26.1800       102
    26.2000        94
    26.2200        62
    26.2400        60
    26.2600        52
    26.2800        62
    26.3000        46
    26.3200        42
    26.3400        44
    26.3600        42
    26.3800        58
    26.4000        48
    26.4200        56
    26.4400        68
    26.4600        70
    26.4800        64
    26.5000        58
    26.5200        44
    26.5400        46
    26.5600        28
    26.5800        44
    26.6000        50
    26.6200        32
    26.6400        36
    26.6600        36
    26.6800        34
    26.7000        28
    26.7200        30
    26.7400        40
    26.7600        40
    26.7800        26
    26.8000        44
    26.8200        28
    26.8400        44
    26.8600        40
    26.8800        24
    26.9000        36
    26.9200        34
    26.9400        42
    26.9600        52
    26.9800        46
    27.0000        38
    27.0200        44
    27.0400        50
    27.0600        50
    27.0800        48
    27.1000        64
    27.1200        56
    27.1400        64
    27.1600        54
    27.1800        62
    27.2000        64
    27.2200        56
    27.2400        50
    27.2600        34
    27.2800        36
    27.3000        34
    27.3200        46
    27.3400        50
    27.3600        32
    27.3800        38
    27.4000        36
    27.4200        40
    27.4400        26
    27.4600        36
    27.4800        40
    27.5000        32
    27.5200        38
    27.5400        36
    27.5600        50
    27.5800        40
    27.6000        36
    27.6200        38
    27.6400        32
    27.6600        46
    27.6800        38
    27.7000        46
    27.7200        32
    27.7400        34
    27.7600        36
    27.7800        38
    27.8000        44
    27.8200        36
    27.8400        46
    27.8600        40
    27.8800        36
    27.9000        34
    27.9200        54
    27.9400        38
    27.9600        48
    27.9800        62
    28.0000        46
    28.0200        52
    28.0400        50
    28.0600        62
    28.0800        58
    28.1000        58
    28.1200        56
    28.1400        62
    28.1600        44
    28.1800        52
    28.2000        52
    28.2200        38
    28.2400        58
    28.2600        42
    28.2800        48
    28.3000        56
    28.3200        44
    28.3400        40
    28.3600        48
    28.3800        54
    28.4000        50
    28.4200        54
    28.4400        60
    28.4600        52
    28.4800        54
    28.5000        40
    28.5200        48
    28.5400        56
    28.5600        42
    28.5800        68
    28.6000        70
    28.6200        68
    28.6400        66
    28.6600        70
    28.6800        72
    28.7000        72
    28.7200        74
    28.7400        82
    28.7600        74
    28.7800        64
    28.8000        76
    28.8200        78
    28.8400        90
    28.8600       118
    28.8800       124
    28.9000       138
    28.9200       140
    28.9400       188
    28.9600       190
    28.9800       234
    29.0000       278
    29.0200       308
    29.0400       370
    29.0600       428
    29.0800       514
    29.1000       634
    29.1200       774
    29.1400       918
    29.1600      1172
    29.1800      1460
    29.2000      1868
    29.2200      2338
    29.2400      3008
    29.2600      3812
    29.2800      4746
    29.3000      5344
    29.3200      6084
    29.3400      6262
    29.3600      6060
    29.3800      5480
    29.4000      4616
    29.4200      3836
    29.4400      2944
    29.4600      2290
    29.4800      1628
    29.5000      1164
    29.5200       796
    29.5400       626
    29.5600       428
    29.5800       352
    29.6000       266
    29.6200       226
    29.6400       182
    29.6600       146
    29.6800       134
    29.7000       134
    29.7200       114
    29.7400       100
    29.7600        84
    29.7800        94
    29.8000        68
    29.8200        62
    29.8400        66
    29.8600        74
    29.8800        54
    29.9000        50
    29.9200        54
    29.9400        48
    29.9600        46
    29.9800        48
    30.0000        48
    30.0200        44
    30.0400        52
    30.0600        36
    30.0800        50
    30.1000        28
    30.1200        38
    30.1400        40
    30.1600        46
    30.1800        48
    30.2000        38
    30.2200        28
    30.2400        40
    30.2600        44
    30.2800        48
    30.3000        34
    30.3200        36
    30.3400        28
    30.3600        44
    30.3800        38
    30.4000        38
    30.4200        26
    30.4400        34
    30.4600        34
    30.4800        32
    30.5000        42
    30.5200        40
    30.5400        50
    30.5600        40
    30.5800        30
    30.6000        46
    30.6200        26
    30.6400        30
    30.6600        22
    30.6800        32
    30.7000        36
    30.7200        42
    30.7400        28
    30.7600        42
    30.7800        32
    30.8000        40
    30.8200        30
    30.8400        26
    30.8600        28
    30.8800        24
    30.9000        28
    30.9200        38
    30.9400        36
    30.9600        32
    30.9800        36
    31.0000        26
    31.0200        22
    31.0400        36
    31.0600        28
    31.0800        42
    31.1000        36
    31.1200        42
    31.1400        46
    31.1600        38
    31.1800        52
    31.2000        42
    31.2200        50
    31.2400        60
    31.2600        80
    31.2800        96
    31.3000        94
    31.3200       106
    31.3400       106
    31.3600        90
    31.3800        72
    31.4000        84
    31.4200        86
    31.4400        62
    31.4600        54
    31.4800        44
    31.5000        56
    31.5200        38
    31.5400        34
    31.5600        34
    31.5800        34
    31.6000        28
    31.6200        36
    31.6400        26
    31.6600        40
    31.6800        22
    31.7000        34
    31.7200        32
    31.7400        22
    31.7600        28
    31.7800        22
    31.8000        26
    31.8200        26
    31.8400        34
    31.8600        24
    31.8800        24
    31.9000        26
    31.9200        26
    31.9400        24
    31.9600        20
    31.9800        18
    32.0000        18
    32.0200        32
    32.0400        26
    32.0600        24
    32.0800        22
    32.1000        26
    32.1200        18
    32.1400        32
    32.1600        24
    32.1800        26
    32.2000        26
    32.2200        26
    32.2400        22
    32.2600        28
    32.2800        34
    32.3000        28
    32.3200        22
    32.3400        26
    32.3600        38
    32.3800        16
    32.4000        36
    32.4200        28
    32.4400        32
    32.4600        28
    32.4800        22
    32.5000        28
    32.5200        26
    32.5400        24
    32.5600        30
    32.5800        24
    32.6000        30
    32.6200        24
    32.6400        22
    32.6600        38
    32.6800        24
    32.7000        28
    32.7200        28
    32.7400        36
    32.7600        32
    32.7800        20
    32.8000        44
    32.8200        34
    32.8400        24
    32.8600        32
    32.8800        24
    32.9000        44
    32.9200        44
    32.9400        42
    32.9600        52
    32.9800        58
    33.0000        64
    33.0200        78
    33.0400        86
    33.0600        86
    33.0800        70
    33.1000        80
    33.1200        70
    33.1400        56
    33.1600        56
    33.1800        44
    33.2000        38
    33.2200        36
    33.2400        22
    33.2600        14
    33.2800        30
    33.3000        28
    33.3200        38
    33.3400        28
    33.3600        22
    33.3800        20
    33.4000        30
    33.4200        30
    33.4400        24
    33.4600        26
    33.4800        20
    33.5000        22
    33.5200        32
    33.5400        20
    33.5600        26
    33.5800        36
    33.6000        18
    33.6200        14
    33.6400        22
    33.6600        20
    33.6800        30
    33.7000        20
    33.7200        32
    33.7400        22
    33.7600        36
    33.7800        22
    33.8000        28
    33.8200        30
    33.8400        16
    33.8600        24
    33.8800        16
    33.9000        18
    33.9200        20
    33.9400        20
    33.9600        24
    33.9800        22
    34.0000        18
    34.0200        32
    34.0400        24
    34.0600        22
    34.0800        30
    34.1000        20
    34.1200        16
    34.1400        28
    34.1600        18
    34.1800        24
    34.2000        18
    34.2200        14
    34.2400        32
    34.2600        28
    34.2800        30
    34.3000        22
    34.3200        34
    34.3400        24
    34.3600        28
    34.3800        18
    34.4000        30
    34.4200        20
    34.4400        20
    34.4600        28
    34.4800        16
    34.5000        26
    34.5200        24
    34.5400        22
    34.5600        22
    34.5800        30
    34.6000        36
    34.6200        30
    34.6400        24
    34.6600        32
    34.6800        34
    34.7000        24
    34.7200        18
    34.7400        32
    34.7600        20
    34.7800        26
    34.8000        22
    34.8200        40
    34.8400        30
    34.8600        26
    34.8800        30
    34.9000        24
    34.9200        22
    34.9400        20
    34.9600        20
    34.9800        32
    35.0000        24
    35.0200        24
    35.0400        24
    35.0600        28
    35.0800        24
    35.1000        24
    35.1200        24
    35.1400        22
    35.1600        18
    35.1800        24
    35.2000        24
    35.2200        26
    35.2400        26
    35.2600        22
    35.2800        24
    35.3000        24
    35.3200        30
    35.3400        22
    35.3600        28
    35.3800        28
    35.4000        38
    35.4200        36
    35.4400        32
    35.4600        44
    35.4800        24
    35.5000        30
    35.5200        34
    35.5400        30
    35.5600        30
    35.5800        44
    35.6000        38
    35.6200        50
    35.6400        42
    35.6600        60
    35.6800        54
    35.7000        82
    35.7200        68
    35.7400        78
    35.7600       100
    35.7800       142
    35.8000       152
    35.8200       186
    35.8400       232
    35.8600       264
    35.8800       292
    35.9000       324
    35.9200       312
    35.9400       312
    35.9600       284
    35.9800       304
    36.0000       234
    36.0200       220
    36.0400       182
    36.0600       148
    36.0800       124
    36.1000        96
    36.1200        94
    36.1400        82
    36.1600        66
    36.1800        48
    36.2000        56
    36.2200        46
    36.2400        42
    36.2600        28
    36.2800        36
    36.3000        36
    36.3200        30
    36.3400        34
    36.3600        24
    36.3800        36
    36.4000        26
    36.4200        28
    36.4400        38
    36.4600        26
    36.4800        28
    36.5000        22
    36.5200        28
    36.5400        28
    36.5600        32
    36.5800        24
    36.6000        32
    36.6200        26
    36.6400        30
    36.6600        24
    36.6800        16
    36.7000        20
    36.7200        18
    36.7400        26
    36.7600        20
    36.7800        26
    36.8000        26
    36.8200        22
    36.8400        24
    36.8600        26
    36.8800        16
    36.9000        24
    36.9200        26
    36.9400        34
    36.9600        28
    36.9800        30
    37.0000        22
    37.0200        30
    37.0400        22
    37.0600        30
    37.0800        26
    37.1000        32
    37.1200        40
    37.1400        38
    37.1600        42
    37.1800        36
    37.2000        42
    37.2200        40
    37.2400        38
    37.2600        28
    37.2800        38
    37.3000        36
    37.3200        32
    37.3400        28
    37.3600        26
    37.3800        26
    37.4000        28
    37.4200        24
    37.4400        20
    37.4600        28
    37.4800        24
    37.5000        24
    37.5200        28
    37.5400        16
    37.5600        36
    37.5800        30
    37.6000        26
    37.6200        34
    37.6400        34
    37.6600        38
    37.6800        46
    37.7000        42
    37.7200        48
    37.7400        58
    37.7600        62
    37.7800        68
    37.8000        58
    37.8200        62
    37.8400        60
    37.8600        64
    37.8800        54
    37.9000        52
    37.9200        50
    37.9400        34
    37.9600        42
    37.9800        38
    38.0000        28
    38.0200        26
    38.0400        24
    38.0600        30
    38.0800        22
    38.1000        32
    38.1200        28
    38.1400        26
    38.1600        26
    38.1800        30
    38.2000        30
    38.2200        34
    38.2400        22
    38.2600        42
    38.2800        40
    38.3000        46
    38.3200        50
    38.3400        46
    38.3600        38
    38.3800        32
    38.4000        32
    38.4200        46
    38.4400        38
    38.4600        58
    38.4800        56
    38.5000        52
    38.5200        42
    38.5400        46
    38.5600        54
    38.5800        42
    38.6000        38
    38.6200        30
    38.6400        40
    38.6600        38
    38.6800        44
    38.7000        32
    38.7200        32
    38.7400        38
    38.7600        26
    38.7800        22
    38.8000        30
    38.8200        26
    38.8400        32
    38.8600        30
    38.8800        32
    38.9000        30
    38.9200        38
    38.9400        32
    38.9600        32
    38.9800        56
    39.0000        48
    39.0200        38
    39.0400        58
    39.0600        50
    39.0800        62
    39.1000        76
    39.1200        78
    39.1400       100
    39.1600        92
    39.1800       144
    39.2000       158
    39.2200       186
    39.2400       272
    39.2600       306
    39.2800       338
    39.3000       376
    39.3200       440
    39.3400       442
    39.3600       418
    39.3800       396
    39.4000       374
    39.4200       340
    39.4400       312
    39.4600       276
    39.4800       220
    39.5000       196
    39.5200       170
    39.5400       124
    39.5600        92
    39.5800        74
    39.6000        68
    39.6200        62
    39.6400        62
    39.6600        58
    39.6800        52
    39.7000        42
    39.7200        46
    39.7400        34
    39.7600        26
    39.7800        36
    39.8000        38
    39.8200        30
    39.8400        30
    39.8600        24
    39.8800        26
    39.9000        34
    39.9200        34
    39.9400        42
    39.9600        24
    39.9800        30
    40.0000        38
    40.0200        28
    40.0400        30
    40.0600        32
    40.0800        24
    40.1000        30
    40.1200        22
    40.1400        26
    40.1600        18
    40.1800        24
    40.2000        16
    40.2200        18
    40.2400        22
    40.2600        30
    40.2800        20
    40.3000        20
    40.3200        14
    40.3400        22
    40.3600        24
    40.3800        20
    40.4000        16
    40.4200        30
    40.4400        28
    40.4600        18
    40.4800        30
    40.5000        20
    40.5200        24
    40.5400        24
    40.5600        28
    40.5800        32
    40.6000        24
    40.6200        22
    40.6400        24
    40.6600        28
    40.6800        28
    40.7000        22
    40.7200        32
    40.7400        24
    40.7600        34
    40.7800        22
    40.8000        16
    40.8200        34
    40.8400        22
    40.8600        28
    40.8800        28
    40.9000        18
    40.9200        20
    40.9400        30
    40.9600        24
    40.9800        22
    41.0000        22
    41.0200        32
    41.0400        28
    41.0600        32
    41.0800        28
    41.1000        36
    41.1200        34
    41.1400        38
    41.1600        30
    41.1800        34
    41.2000        42
    41.2200        28
    41.2400        26
    41.2600        28
    41.2800        20
    41.3000        22
    41.3200        20
    41.3400        24
    41.3600        30
    41.3800        18
    41.4000        16
    41.4200        26
    41.4400        22
    41.4600        20
    41.4800        24
    41.5000        22
    41.5200        20
    41.5400        20
    41.5600        30
    41.5800        18
    41.6000        20
    41.6200        26
    41.6400        24
    41.6600        26
    41.6800        24
    41.7000        22
    41.7200        20
    41.7400        28
    41.7600        22
    41.7800        26
    41.8000        22
    41.8200        24
    41.8400        24
    41.8600        26
    41.8800        28
    41.9000        22
    41.9200        20
    41.9400        24
    41.9600        22
    41.9800        20
    42.0000        18
    42.0200        22
    42.0400        22
    42.0600        26
    42.0800        34
    42.1000        16
    42.1200        18
    42.1400        16
    42.1600        30
    42.1800        20
    42.2000        22
    42.2200        32
    42.2400        28
    42.2600        28
    42.2800        26
    42.3000        16
    42.3200        30
    42.3400        28
    42.3600        18
    42.3800        22
    42.4000        24
    42.4200        24
    42.4400        30
    42.4600        20
    42.4800        24
    42.5000        34
    42.5200        36
    42.5400        38
    42.5600        38
    42.5800        28
    42.6000        40
    42.6200        30
    42.6400        26
    42.6600        44
    42.6800        44
    42.7000        44
    42.7200        44
    42.7400        56
    42.7600        36
    42.7800        48
    42.8000        72
    42.8200        60
    42.8400        74
    42.8600        80
    42.8800        82
    42.9000        84
    42.9200       112
    42.9400       126
    42.9600       160
    42.9800       188
    43.0000       260
    43.0200       302
    43.0400       394
    43.0600       404
    43.0800       428
    43.1000       470
    43.1200       432
    43.1400       406
    43.1600       436
    43.1800       374
    43.2000       332
    43.2200       320
    43.2400       232
    43.2600       214
    43.2800       164
    43.3000       150
    43.3200        92
    43.3400        80
    43.3600        96
    43.3800        60
    43.4000        50
    43.4200        68
    43.4400        36
    43.4600        44
    43.4800        40
    43.5000        46
    43.5200        38
    43.5400        38
    43.5600        30
    43.5800        30
    43.6000        32
    43.6200        24
    43.6400        32
    43.6600        24
    43.6800        34
    43.7000        40
    43.7200        28
    43.7400        26
    43.7600        32
    43.7800        32
    43.8000        24
    43.8200        28
    43.8400        22
    43.8600        30
    43.8800        20
    43.9000        26
    43.9200        30
    43.9400        16
    43.9600        30
    43.9800        26
    44.0000        34
    44.0200        18
    44.0400        30
    44.0600        22
    44.0800        22
    44.1000        24
    44.1200        30
    44.1400        28
    44.1600        38
    44.1800        24
    44.2000        16
    44.2200        22
    44.2400        12
    44.2600        28
    44.2800        28
    44.3000        30
    44.3200        30
    44.3400        32
    44.3600        30
    44.3800        18
    44.4000        28
    44.4200        32
    44.4400        30
    44.4600        24
    44.4800        20
    44.5000        16
    44.5200        24
    44.5400        26
    44.5600        16
    44.5800        20
    44.6000        22
    44.6200        28
    44.6400        32
    44.6600        36
    44.6800        28
    44.7000        22
    44.7200        26
    44.7400        20
    44.7600        22
    44.7800        24
    44.8000        24
    44.8200        26
    44.8400        24
    44.8600        28
    44.8800        20
    44.9000        26
    44.9200        32
    44.9400        22
    44.9600        26
    44.9800        20
    45.0000        22
    45.0200        20
    45.0400        30
    45.0600        26
    45.0800        26
    45.1000        26
    45.1200        30
    45.1400        26
    45.1600        24
    45.1800        32
    45.2000        26
    45.2200        24
    45.2400        30
    45.2600        18
    45.2800        28
    45.3000        28
    45.3200        26
    45.3400        32
    45.3600        32
    45.3800        26
    45.4000        30
    45.4200        22
    45.4400        24
    45.4600        30
    45.4800        22
    45.5000        30
    45.5200        26
    45.5400        36
    45.5600        24
    45.5800        28
    45.6000        26
    45.6200        32
    45.6400        42
    45.6600        28
    45.6800        36
    45.7000        48
    45.7200        72
    45.7400        62
    45.7600        66
    45.7800        62
    45.8000        70
    45.8200        74
    45.8400        48
    45.8600        46
    45.8800        68
    45.9000        42
    45.9200        46
    45.9400        50
    45.9600        36
    45.9800        44
    46.0000        44
    46.0200        36
    46.0400        30
    46.0600        32
    46.0800        32
    46.1000        42
    46.1200        26
    46.1400        20
    46.1600        28
    46.1800        34
    46.2000        24
    46.2200        34
    46.2400        22
    46.2600        38
    46.2800        16
    46.3000        28
    46.3200        18
    46.3400        30
    46.3600        30
    46.3800        28
    46.4000        30
    46.4200        28
    46.4400        38
    46.4600        22
    46.4800        26
    46.5000        26
    46.5200        32
    46.5400        42
    46.5600        32
    46.5800        28
    46.6000        32
    46.6200        28
    46.6400        30
    46.6600        36
    46.6800        38
    46.7000        38
    46.7200        50
    46.7400        38
    46.7600        32
    46.7800        42
    46.8000        36
    46.8200        40
    46.8400        62
    46.8600        46
    46.8800        72
    46.9000        94
    46.9200        80
    46.9400        94
    46.9600       128
    46.9800       128
    47.0000       160
    47.0200       150
    47.0400       172
    47.0600       148
    47.0800       154
    47.1000       176
    47.1200       162
    47.1400       174
    47.1600       154
    47.1800       170
    47.2000       166
    47.2200       168
    47.2400       170
    47.2600       196
    47.2800       218
    47.3000       268
    47.3200       350
    47.3400       416
    47.3600       458
    47.3800       474
    47.4000       492
    47.4200       540
    47.4400       540
    47.4600       582
    47.4800       504
    47.5000       484
    47.5200       492
    47.5400       394
    47.5600       418
    47.5800       362
    47.6000       286
    47.6200       284
    47.6400       258
    47.6600       188
    47.6800       164
    47.7000       130
    47.7200       134
    47.7400       106
    47.7600        84
    47.7800        72
    47.8000        76
    47.8200        64
    47.8400        50
    47.8600        58
    47.8800        44
    47.9000        52
    47.9200        56
    47.9400        48
    47.9600        52
    47.9800        58
    48.0000        56
    48.0200        48
    48.0400        54
    48.0600        74
    48.0800        60
    48.1000        54
    48.1200        74
    48.1400        84
    48.1600        78
    48.1800        88
    48.2000       114
    48.2200       140
    48.2400       130
    48.2600       148
    48.2800       204
    48.3000       232
    48.3200       290
    48.3400       348
    48.3600       430
    48.3800       492
    48.4000       506
    48.4200       474
    48.4400       492
    48.4600       494
    48.4800       466
    48.5000       518
    48.5200       452
    48.5400       404
    48.5600       380
    48.5800       344
    48.6000       282
    48.6200       258
    48.6400       246
    48.6600       178
    48.6800       170
    48.7000       142
    48.7200       114
    48.7400        92
    48.7600        72
    48.7800        66
    48.8000        72
    48.8200        56
    48.8400        46
    48.8600        50
    48.8800        52
    48.9000        38
    48.9200        52
    48.9400        42
    48.9600        40
    48.9800        32
    49.0000        26
    49.0200        28
    49.0400        18
    49.0600        28
    49.0800        22
    49.1000        34
    49.1200        26
    49.1400        30
    49.1600        28
    49.1800        18
    49.2000        26
    49.2200        28
    49.2400        24
    49.2600        20
    49.2800        32
    49.3000        30
    49.3200        24
    49.3400        26
    49.3600        26
    49.3800        26
    49.4000        24
    49.4200        16
    49.4400        26
    49.4600        30
    49.4800        26
    49.5000        24
    49.5200        24
    49.5400        26
    49.5600        36
    49.5800        20
    49.6000        26
    49.6200        14
    49.6400        30
    49.6600        24
    49.6800        30
    49.7000        12
    49.7200        32
    49.7400        18
    49.7600        24
    49.7800        32
    49.8000        28
    49.8200        24
    49.8400        28
    49.8600        16
    49.8800        30
    49.9000        28
    49.9200        30
    49.9400        26
    49.9600        22
    49.9800        20
    50.0000        34
    50.0200        36
    50.0400        38
    50.0600        36
    50.0800        38
    50.1000        46
    50.1200        38
    50.1400        34
    50.1600        42
    50.1800        42
    50.2000        46
    50.2200        36
    50.2400        28
    50.2600        46
    50.2800        18
    50.3000        26
    50.3200        30
    50.3400        20
    50.3600        22
    50.3800        28
    50.4000        14
    50.4200        26
    50.4400        24
    50.4600        32
    50.4800        20
    50.5000        20
    50.5200        28
    50.5400        40
    50.5600        32
    50.5800        22
    50.6000        20
    50.6200        26
    50.6400        18
    50.6600        24
    50.6800        20
    50.7000        30
    50.7200        16
    50.7400        24
    50.7600        20
    50.7800        24
    50.8000        22
    50.8200        18
    50.8400        20
    50.8600        18
    50.8800        28
    50.9000        30
    50.9200        22
    50.9400        24
    50.9600        22
    50.9800        32
    51.0000        18
    51.0200        14
    51.0400        16
    51.0600        28
    51.0800        14
    51.1000        16
    51.1200        22
    51.1400        28
    51.1600        26
    51.1800        16
    51.2000        22
    51.2200        22
    51.2400        16
    51.2600        20
    51.2800        12
    51.3000        18
    51.3200        22
    51.3400        18
    51.3600        24
    51.3800        20
    51.4000        12
    51.4200        26
    51.4400        24
    51.4600        14
    51.4800        26
    51.5000        24
    51.5200        22
    51.5400        34
    51.5600        24
    51.5800        18
    51.6000        22
    51.6200        20
    51.6400        28
    51.6600        18
    51.6800        22
    51.7000        30
    51.7200        26
    51.7400        12
    51.7600        32
    51.7800        26
    51.8000        24
    51.8200        20
    51.8400        24
    51.8600        20
    51.8800        18
    51.9000        22
    51.9200        14
    51.9400        24
    51.9600        18
    51.9800        32
    52.0000        16
    52.0200        20
    52.0400        22
    52.0600        26
    52.0800        12
    52.1000        26
    52.1200        20
    52.1400        12
    52.1600        16
    52.1800        22
    52.2000        22
    52.2200        34
    52.2400        26
    52.2600        28
    52.2800        38
    52.3000        28
    52.3200        36
    52.3400        42
    52.3600        36
    52.3800        44
    52.4000        46
    52.4200        38
    52.4400        48
    52.4600        30
    52.4800        40
    52.5000        42
    52.5200        30
    52.5400        42
    52.5600        34
    52.5800        26
    52.6000        30
    52.6200        28
    52.6400        26
    52.6600        16
    52.6800        24
    52.7000        20
    52.7200        24
    52.7400        26
    52.7600        26
    52.7800        32
    52.8000        30
    52.8200        34
    52.8400        32
    52.8600        40
    52.8800        44
    52.9000        36
    52.9200        34
    52.9400        28
    52.9600        42
    52.9800        28
    53.0000        34
    53.0200        34
    53.0400        34
    53.0600        34
    53.0800        26
    53.1000        32
    53.1200        20
    53.1400        24
    53.1600        30
    53.1800        24
    53.2000        22
    53.2200        32
    53.2400        16
    53.2600        22
    53.2800        22
    53.3000        22
    53.3200        22
    53.3400        14
    53.3600        32
    53.3800        18
    53.4000        18
    53.4200        24
    53.4400        16
    53.4600        16
    53.4800        28
    53.5000        18
    53.5200        22
    53.5400        30
    53.5600        16
    53.5800        22
    53.6000        26
    53.6200        22
    53.6400        22
    53.6600        16
    53.6800        30
    53.7000        24
    53.7200        30
    53.7400        18
    53.7600        20
    53.7800        14
    53.8000        14
    53.8200        20
    53.8400        22
    53.8600        28
    53.8800        20
    53.9000        28
    53.9200        12
    53.9400        22
    53.9600        32
    53.9800        18
    54.0000        22
    54.0200        24
    54.0400        18
    54.0600        26
    54.0800        18
    54.1000        26
    54.1200        20
    54.1400        14
    54.1600        24
    54.1800        24
    54.2000        20
    54.2200        20
    54.2400        22
    54.2600        24
    54.2800        26
    54.3000        24
    54.3200        28
    54.3400        20
    54.3600        22
    54.3800        22
    54.4000        20
    54.4200        30
    54.4400        12
    54.4600        18
    54.4800        28
    54.5000        16
    54.5200        26
    54.5400        16
    54.5600        14
    54.5800        14
    54.6000        26
    54.6200        20
    54.6400        28
    54.6600        12
    54.6800        22
    54.7000        22
    54.7200        16
    54.7400        18
    54.7600        22
    54.7800        22
    54.8000        26
    54.8200        20
    54.8400        22
    54.8600        22
    54.8800        16
    54.9000        18
    54.9200         8
    54.9400        28
    54.9600        18
    54.9800        12
    55.0000        22
    55.0200        18
    55.0400        16
    55.0600        20
    55.0800        24
    55.1000        16
    55.1200        26
    55.1400        16
    55.1600        18
    55.1800        20
    55.2000        22
    55.2200        18
    55.2400        16
    55.2600        16
    55.2800        20
    55.3000        26
    55.3200        26
    55.3400        22
    55.3600        26
    55.3800        18
    55.4000        22
    55.4200         8
    55.4400        28
    55.4600        14
    55.4800        18
    55.5000        20
    55.5200        28
    55.5400        26
    55.5600        18
    55.5800        14
    55.6000        18
    55.6200        16
    55.6400        26
    55.6600        20
    55.6800        20
    55.7000        28
    55.7200        18
    55.7400        22
    55.7600        12
    55.7800        20
    55.8000        22
    55.8200        22
    55.8400        30
    55.8600        18
    55.8800        20
    55.9000        26
    55.9200        20
    55.9400        24
    55.9600        24
    55.9800        20
    56.0000        22
    56.0200        34
    56.0400        24
    56.0600        26
    56.0800        20
    56.1000        18
    56.1200        24
    56.1400        22
    56.1600        38
    56.1800        36
    56.2000        20
    56.2200        24
    56.2400        34
    56.2600        34
    56.2800        20
    56.3000        36
    56.3200        42
    56.3400        48
    56.3600        40
    56.3800        56
    56.4000        48
    56.4200        78
    56.4400        86
    56.4600        72
    56.4800        86
    56.5000        86
    56.5200        88
    56.5400        72
    56.5600        88
    56.5800        90
    56.6000        72
    56.6200        82
    56.6400        64
    56.6600        72
    56.6800        54
    56.7000        50
    56.7200        58
    56.7400        46
    56.7600        44
    56.7800        48
    56.8000        46
    56.8200        42
    56.8400        38
    56.8600        42
    56.8800        32
    56.9000        32
    56.9200        28
    56.9400        22
    56.9600        26
    56.9800        34
    57.0000        34
    57.0200        50
    57.0400        34
    57.0600        42
    57.0800        38
    57.1000        50
    57.1200        48
    57.1400        60
    57.1600        70
    57.1800        72
    57.2000        94
    57.2200        88
    57.2400       120
    57.2600       134
    57.2800       158
    57.3000       174
    57.3200       188
    57.3400       170
    57.3600       188
    57.3800       168
    57.4000       146
    57.4200       158
    57.4400       176
    57.4600       150
    57.4800       120
    57.5000       152
    57.5200       116
    57.5400       100
    57.5600       106
    57.5800        82
    57.6000        70
    57.6200        48
    57.6400        58
    57.6600        56
    57.6800        62
    57.7000        54
    57.7200        50
    57.7400        40
    57.7600        40
    57.7800        34
    57.8000        26
    57.8200        28
    57.8400        46
    57.8600        42
    57.8800        50
    57.9000        36
    57.9200        52
    57.9400        44
    57.9600        48
    57.9800        46
    58.0000        58
    58.0200        58
    58.0400        38
    58.0600        32
    58.0800        44
    58.1000        52
    58.1200        50
    58.1400        48
    58.1600        26
    58.1800        40
    58.2000        36
    58.2200        46
    58.2400        26
    58.2600        36
    58.2800        28
    58.3000        36
    58.3200        26
    58.3400        20
    58.3600        24
    58.3800        24
    58.4000        24
    58.4200        28
    58.4400        36
    58.4600        26
    58.4800        28
    58.5000        32
    58.5200        32
    58.5400        18
    58.5600        22
    58.5800        20
    58.6000        26
    58.6200        22
    58.6400        12
    58.6600        22
    58.6800        18
    58.7000        22
    58.7200        18
    58.7400        18
    58.7600        28
    58.7800        20
    58.8000        22
    58.8200        18
    58.8400        32
    58.8600        24
    58.8800        24
    58.9000        24
    58.9200        24
    58.9400        18
    58.9600        26
    58.9800        22
    59.0000        26
    59.0200        18
    59.0400        24
    59.0600        22
    59.0800        22
    59.1000        26
    59.1200        32
    59.1400        16
    59.1600        28
    59.1800        28
    59.2000        34
    59.2200        24
    59.2400        28
    59.2600        26
    59.2800        26
    59.3000        22
    59.3200        28
    59.3400        30
    59.3600        28
    59.3800        22
    59.4000        22
    59.4200        30
    59.4400        18
    59.4600        14
    59.4800        22
    59.5000        20
    59.5200        12
    59.5400        18
    59.5600        22
    59.5800        28
    59.6000        18
    59.6200        14
    59.6400        22
    59.6600        20
    59.6800        16
    59.7000        26
    59.7200        14
    59.7400        14
    59.7600        20
    59.7800        18
    59.8000        22
    59.8200        24
    59.8400        16
    59.8600        18
    59.8800        18
    59.9000        16
    59.9200        24
    59.9400        16
    59.9600        30
    59.9800        16
    60.0000        22
    60.0200        32
    60.0400        22
    60.0600        34
    60.0800        14
    60.1000        18
    60.1200        22
    60.1400        32
    60.1600        36
    60.1800        24
    60.2000        24
    60.2200        32
    60.2400        32
    60.2600        26
    60.2800        22
    60.3000        40
    60.3200        36
    60.3400        42
    60.3600        42
    60.3800        38
    60.4000        28
    60.4200        42
    60.4400        34
    60.4600        64
    60.4800        76
    60.5000        60
    60.5200       106
    60.5400       104
    60.5600       126
    60.5800       118
    60.6000       128
    60.6200       122
    60.6400       124
    60.6600       126
    60.6800       120
    60.7000       122
    60.7200       122
    60.7400       118
    60.7600       116
    60.7800       140
    60.8000       118
    60.8200       116
    60.8400       134
    60.8600       150
    60.8800       148
    60.9000       154
    60.9200       166
    60.9400       140
    60.9600       134
    60.9800       152
    61.0000       136
    61.0200       114
    61.0400       144
    61.0600       100
    61.0800       114
    61.1000        96
    61.1200        86
    61.1400       108
    61.1600       114
    61.1800       104
    61.2000       110
    61.2200       102
    61.2400       100
    61.2600        90
    61.2800       104
    61.3000        88
    61.3200        78
    61.3400        92
    61.3600        96
    61.3800        70
    61.4000        94
    61.4200        86
    61.4400        78
    61.4600        74
    61.4800        66
    61.5000        72
    61.5200        52
    61.5400        52
    61.5600        58
    61.5800        34
    61.6000        48
    61.6200        56
    61.6400        34
    61.6600        28
    61.6800        40
    61.7000        38
    61.7200        30
    61.7400        40
    61.7600        28
    61.7800        28
    61.8000        24
    61.8200        28
    61.8400        20
    61.8600        38
    61.8800        40
    61.9000        32
    61.9200        30
    61.9400        32
    61.9600        22
    61.9800        22
    62.0000        32
    62.0200        26
    62.0400        30
    62.0600        14
    62.0800        22
    62.1000        24
    62.1200        32
    62.1400        24
    62.1600        22
    62.1800        16
    62.2000        34
    62.2200        20
    62.2400        22
    62.2600        10
    62.2800        28
    62.3000        14
    62.3200        18
    62.3400        20
    62.3600        32
    62.3800        20
    62.4000        18
    62.4200        16
    62.4400        22
    62.4600        20
    62.4800        32
    62.5000        24
    62.5200        24
    62.5400        24
    62.5600        26
    62.5800        18
    62.6000        28
    62.6200        20
    62.6400        18
    62.6600        34
    62.6800        18
    62.7000        24
    62.7200        20
    62.7400        18
    62.7600        14
    62.7800        28
    62.8000        32
    62.8200        28
    62.8400        26
    62.8600        34
    62.8800        38
    62.9000        46
    62.9200        42
    62.9400        68
    62.9600        60
    62.9800        60
    63.0000        48
    63.0200        60
    63.0400        50
    63.0600        42
    63.0800        50
    63.1000        46
    63.1200        42
    63.1400        44
    63.1600        44
    63.1800        42
    63.2000        30
    63.2200        38
    63.2400        34
    63.2600        34
    63.2800        36
    63.3000        42
    63.3200        26
    63.3400        26
    63.3600        36
    63.3800        18
    63.4000        24
    63.4200        26
    63.4400        34
    63.4600        30
    63.4800        22
    63.5000        24
    63.5200        14
    63.5400        34
    63.5600        24
    63.5800        26
    63.6000        14
    63.6200        24
    63.6400        22
    63.6600        28
    63.6800        22
    63.7000        14
    63.7200        28
    63.7400        20
    63.7600        28
    63.7800        20
    63.8000        20
    63.8200        20
    63.8400        24
    63.8600        18
    63.8800        32
    63.9000        26
    63.9200        34
    63.9400        20
    63.9600        26
    63.9800        20
    64.0000        12
    64.0200        26
    64.0400        22
    64.0600        24
    64.0800        24
    64.1000        18
    64.1200        30
    64.1400        28
    64.1600        38
    64.1800        18
    64.2000        28
    64.2200        38
    64.2400        32
    64.2600        36
    64.2800        28
    64.3000        36
    64.3200        36
    64.3400        20
    64.3600        42
    64.3800        32
    64.4000        34
    64.4200        40
    64.4400        56
    64.4600        76
    64.4800        94
    64.5000        90
    64.5200        96
    64.5400       104
    64.5600       110
    64.5800       120
    64.6000       128
    64.6200       114
    64.6400       112
    64.6600       102
    64.6800       114
    64.7000       104
    64.7200       104
    64.7400       118
    64.7600       110
    64.7800       102
    64.8000        72
    64.8200        90
    64.8400        64
    64.8600        62
    64.8800        66
    64.9000        60
    64.9200        36
    64.9400        48
    64.9600        36
    64.9800        42
    65.0000        44
