/////////////////////////////////////////////////////////////////////////////////
/// Profile Data Ascii Dump (XRD)                                             ///
/////////////////////////////////////////////////////////////////////////////////

  Group     : Swayze
  Data      : GDS5
  File Name : GDS5.RAW

# Profile Datafile
          comment             = Mesolite 
          date & time         = 08-03-24 08:19:54 

# Measurement Condition
    X-ray tube
          target              = Cu 
          voltage             = 40.0 (kV)
          current             = 30.0 (mA)
    Slits
          divergence slit     = 2.00000 (deg) 
          scatter slit        = 2.00000 (deg) 
          receiving slit      = 0.15000 (mm)  
    Scanning
          drive axis          = Theta-2Theta 
          scan range          =    4.000 -   65.000 
          scan mode           = Continuous Scan 
          scan speed          =   2.0000 (deg/min) 
          sampling pitch      =   0.0200 (deg) 
          preset time         =   0.60 (sec) 

# Data      [ Total No. = 3051 ]
  <2Theta>   <   I   >
     4.0000       196
     4.0200       166
     4.0400       174
     4.0600       190
     4.0800       180
     4.1000       190
     4.1200       170
     4.1400       146
     4.1600       166
     4.1800       178
     4.2000       176
     4.2200       180
     4.2400       182
     4.2600       160
     4.2800       162
     4.3000       168
     4.3200       222
     4.3400       154
     4.3600       172
     4.3800       160
     4.4000       140
     4.4200       168
     4.4400       178
     4.4600       142
     4.4800       178
     4.5000       184
     4.5200       154
     4.5400       182
     4.5600       178
     4.5800       170
     4.6000       178
     4.6200       144
     4.6400       152
     4.6600       150
     4.6800       138
     4.7000       140
     4.7200       186
     4.7400       182
     4.7600       154
     4.7800       166
     4.8000       132
     4.8200       164
     4.8400       154
     4.8600       168
     4.8800       128
     4.9000       132
     4.9200       138
     4.9400       172
     4.9600       192
     4.9800       164
     5.0000       154
     5.0200       144
     5.0400       148
     5.0600       172
     5.0800       152
     5.1000       162
     5.1200       146
     5.1400       132
     5.1600       150
     5.1800       144
     5.2000       140
     5.2200       152
     5.2400       146
     5.2600       158
     5.2800       150
     5.3000       168
     5.3200       150
     5.3400       148
     5.3600       152
     5.3800       168
     5.4000       150
     5.4200       138
     5.4400       170
     5.4600       164
     5.4800       140
     5.5000       170
     5.5200       144
     5.5400       144
     5.5600       126
     5.5800       162
     5.6000       156
     5.6200       142
     5.6400       148
     5.6600       138
     5.6800       146
     5.7000       144
     5.7200       146
     5.7400       156
     5.7600       154
     5.7800       158
     5.8000       146
     5.8200       146
     5.8400       140
     5.8600       134
     5.8800       154
     5.9000       144
     5.9200       164
     5.9400       150
     5.9600       148
     5.9800       178
     6.0000       148
     6.0200       144
     6.0400       130
     6.0600       154
     6.0800       150
     6.1000       150
     6.1200       154
     6.1400       126
     6.1600       140
     6.1800       154
     6.2000       140
     6.2200       174
     6.2400       152
     6.2600       120
     6.2800       142
     6.3000       136
     6.3200       150
     6.3400       120
     6.3600       148
     6.3800       134
     6.4000       138
     6.4200       142
     6.4400       140
     6.4600       148
     6.4800       140
     6.5000       122
     6.5200       126
     6.5400       140
     6.5600       136
     6.5800       136
     6.6000       126
     6.6200       146
     6.6400       128
     6.6600       138
     6.6800       140
     6.7000       116
     6.7200       112
     6.7400       128
     6.7600       126
     6.7800       132
     6.8000       116
     6.8200       134
     6.8400       126
     6.8600       118
     6.8800       130
     6.9000       114
     6.9200       112
     6.9400       114
     6.9600       120
     6.9800       128
     7.0000       128
     7.0200       126
     7.0400       114
     7.0600       110
     7.0800       102
     7.1000       122
     7.1200       124
     7.1400       118
     7.1600       112
     7.1800       116
     7.2000       110
     7.2200       110
     7.2400       114
     7.2600       106
     7.2800       104
     7.3000        94
     7.3200       104
     7.3400       110
     7.3600       120
     7.3800       118
     7.4000        90
     7.4200       118
     7.4400       112
     7.4600       110
     7.4800       118
     7.5000       106
     7.5200       100
     7.5400       118
     7.5600       112
     7.5800        88
     7.6000       102
     7.6200        88
     7.6400       110
     7.6600       124
     7.6800       116
     7.7000        92
     7.7200        94
     7.7400       116
     7.7600       114
     7.7800       112
     7.8000        92
     7.8200       118
     7.8400       102
     7.8600       118
     7.8800        96
     7.9000       106
     7.9200       102
     7.9400       122
     7.9600       102
     7.9800       108
     8.0000       104
     8.0200       102
     8.0400       126
     8.0600        96
     8.0800       122
     8.1000       120
     8.1200       106
     8.1400       108
     8.1600        92
     8.1800        98
     8.2000       120
     8.2200        96
     8.2400        96
     8.2600        94
     8.2800       136
     8.3000       110
     8.3200        92
     8.3400        98
     8.3600       120
     8.3800       100
     8.4000       106
     8.4200        98
     8.4400       114
     8.4600       102
     8.4800       118
     8.5000       120
     8.5200       132
     8.5400       110
     8.5600       112
     8.5800       102
     8.6000       110
     8.6200       110
     8.6400       110
     8.6600       128
     8.6800        92
     8.7000       106
     8.7200        88
     8.7400        90
     8.7600       100
     8.7800       108
     8.8000       118
     8.8200       122
     8.8400       112
     8.8600       118
     8.8800        92
     8.9000       106
     8.9200       124
     8.9400       124
     8.9600       118
     8.9800       100
     9.0000        90
     9.0200       114
     9.0400       120
     9.0600       104
     9.0800       108
     9.1000       112
     9.1200        90
     9.1400       108
     9.1600       120
     9.1800        92
     9.2000        96
     9.2200       114
     9.2400       120
     9.2600       110
     9.2800        94
     9.3000       132
     9.3200       106
     9.3400       112
     9.3600       102
     9.3800        98
     9.4000       108
     9.4200        98
     9.4400       118
     9.4600       118
     9.4800       112
     9.5000       110
     9.5200        96
     9.5400       114
     9.5600       120
     9.5800        86
     9.6000       124
     9.6200       108
     9.6400        98
     9.6600       108
     9.6800       104
     9.7000       106
     9.7200       112
     9.7400        98
     9.7600       136
     9.7800       124
     9.8000       108
     9.8200       118
     9.8400       136
     9.8600       120
     9.8800       136
     9.9000       130
     9.9200       128
     9.9400       102
     9.9600       122
     9.9800        96
    10.0000       108
    10.0200        82
    10.0400       114
    10.0600       100
    10.0800        94
    10.1000       108
    10.1200       104
    10.1400        96
    10.1600        90
    10.1800        94
    10.2000        86
    10.2200       106
    10.2400        98
    10.2600       102
    10.2800        82
    10.3000       116
    10.3200        90
    10.3400        90
    10.3600       100
    10.3800        86
    10.4000       114
    10.4200       100
    10.4400        98
    10.4600        98
    10.4800        98
    10.5000        88
    10.5200       112
    10.5400        80
    10.5600        88
    10.5800        86
    10.6000       102
    10.6200       104
    10.6400       102
    10.6600        82
    10.6800        84
    10.7000        88
    10.7200       106
    10.7400       102
    10.7600       112
    10.7800       104
    10.8000        70
    10.8200        94
    10.8400        84
    10.8600        98
    10.8800       138
    10.9000       138
    10.9200       162
    10.9400       170
    10.9600       154
    10.9800       114
    11.0000       132
    11.0200       144
    11.0400       146
    11.0600       144
    11.0800       178
    11.1000       160
    11.1200       176
    11.1400       172
    11.1600       192
    11.1800       186
    11.2000       194
    11.2200       172
    11.2400       164
    11.2600       162
    11.2800       132
    11.3000       126
    11.3200       110
    11.3400        94
    11.3600        88
    11.3800       110
    11.4000        92
    11.4200        90
    11.4400       102
    11.4600        84
    11.4800        70
    11.5000        74
    11.5200       112
    11.5400        86
    11.5600        84
    11.5800        92
    11.6000        84
    11.6200        94
    11.6400        94
    11.6600       104
    11.6800        72
    11.7000        80
    11.7200        72
    11.7400        78
    11.7600        90
    11.7800        70
    11.8000        68
    11.8200        70
    11.8400        94
    11.8600        68
    11.8800        94
    11.9000        78
    11.9200        78
    11.9400        66
    11.9600        76
    11.9800        80
    12.0000        88
    12.0200        74
    12.0400        66
    12.0600        76
    12.0800        72
    12.1000        90
    12.1200        90
    12.1400        72
    12.1600        80
    12.1800        72
    12.2000        68
    12.2200        92
    12.2400        72
    12.2600        90
    12.2800        74
    12.3000        72
    12.3200        78
    12.3400        76
    12.3600        70
    12.3800        84
    12.4000        84
    12.4200        90
    12.4400        90
    12.4600        68
    12.4800        84
    12.5000        84
    12.5200        84
    12.5400        74
    12.5600        86
    12.5800        80
    12.6000        94
    12.6200        90
    12.6400        92
    12.6600        94
    12.6800        82
    12.7000        72
    12.7200        80
    12.7400        62
    12.7600       104
    12.7800       114
    12.8000       108
    12.8200       140
    12.8400       116
    12.8600       114
    12.8800       114
    12.9000       124
    12.9200       116
    12.9400       128
    12.9600       142
    12.9800       170
    13.0000       172
    13.0200       166
    13.0400       186
    13.0600       192
    13.0800       204
    13.1000       204
    13.1200       206
    13.1400       202
    13.1600       228
    13.1800       314
    13.2000       338
    13.2200       378
    13.2400       450
    13.2600       730
    13.2800      1506
    13.3000      2294
    13.3200      2710
    13.3400      3000
    13.3600      3050
    13.3800      2548
    13.4000      1818
    13.4200      1098
    13.4400       598
    13.4600       376
    13.4800       228
    13.5000       184
    13.5200       106
    13.5400       140
    13.5600        90
    13.5800        92
    13.6000        94
    13.6200       104
    13.6400        88
    13.6600        82
    13.6800        72
    13.7000        68
    13.7200        78
    13.7400        78
    13.7600        60
    13.7800        78
    13.8000        58
    13.8200        64
    13.8400        70
    13.8600        66
    13.8800        86
    13.9000        70
    13.9200        76
    13.9400        50
    13.9600        70
    13.9800        74
    14.0000        62
    14.0200        98
    14.0400        56
    14.0600        54
    14.0800        82
    14.1000        64
    14.1200        72
    14.1400        70
    14.1600        72
    14.1800        64
    14.2000        64
    14.2200        80
    14.2400        72
    14.2600        92
    14.2800        92
    14.3000        80
    14.3200        76
    14.3400        86
    14.3600       104
    14.3800       100
    14.4000        74
    14.4200        74
    14.4400        74
    14.4600        76
    14.4800        64
    14.5000        68
    14.5200        60
    14.5400        68
    14.5600        56
    14.5800        62
    14.6000        80
    14.6200        72
    14.6400        78
    14.6600        70
    14.6800        82
    14.7000        82
    14.7200        92
    14.7400        78
    14.7600        84
    14.7800        72
    14.8000        78
    14.8200        84
    14.8400        78
    14.8600       106
    14.8800       116
    14.9000       126
    14.9200       140
    14.9400       134
    14.9600       154
    14.9800       180
    15.0000       218
    15.0200       184
    15.0400       200
    15.0600       184
    15.0800       146
    15.1000       110
    15.1200       114
    15.1400        62
    15.1600        80
    15.1800        60
    15.2000        74
    15.2200        66
    15.2400        56
    15.2600        56
    15.2800        62
    15.3000        60
    15.3200        46
    15.3400        54
    15.3600        64
    15.3800        46
    15.4000        62
    15.4200        58
    15.4400        56
    15.4600        54
    15.4800        50
    15.5000        60
    15.5200        54
    15.5400        50
    15.5600        64
    15.5800        50
    15.6000        48
    15.6200        70
    15.6400        78
    15.6600        60
    15.6800        48
    15.7000        62
    15.7200        62
    15.7400        54
    15.7600        54
    15.7800        66
    15.8000        60
    15.8200        48
    15.8400        64
    15.8600        52
    15.8800        62
    15.9000        40
    15.9200        52
    15.9400        58
    15.9600        56
    15.9800        60
    16.0000        64
    16.0200        62
    16.0400        56
    16.0600        56
    16.0800        58
    16.1000        76
    16.1200        60
    16.1400        64
    16.1600        78
    16.1800        66
    16.2000        68
    16.2200        78
    16.2400        76
    16.2600        72
    16.2800        76
    16.3000        90
    16.3200        66
    16.3400        56
    16.3600        56
    16.3800        66
    16.4000        62
    16.4200        46
    16.4400        54
    16.4600        52
    16.4800        62
    16.5000        50
    16.5200        58
    16.5400        52
    16.5600        60
    16.5800        44
    16.6000        48
    16.6200        42
    16.6400        46
    16.6600        54
    16.6800        40
    16.7000        54
    16.7200        50
    16.7400        52
    16.7600        48
    16.7800        42
    16.8000        42
    16.8200        50
    16.8400        60
    16.8600        60
    16.8800        62
    16.9000        54
    16.9200        76
    16.9400        56
    16.9600        62
    16.9800        52
    17.0000        42
    17.0200        46
    17.0400        58
    17.0600        48
    17.0800        54
    17.1000        48
    17.1200        56
    17.1400        48
    17.1600        48
    17.1800        46
    17.2000        38
    17.2200        54
    17.2400        58
    17.2600        48
    17.2800        56
    17.3000        50
    17.3200        44
    17.3400        66
    17.3600        60
    17.3800        44
    17.4000        42
    17.4200        54
    17.4400        62
    17.4600        54
    17.4800        54
    17.5000        52
    17.5200        32
    17.5400        54
    17.5600        38
    17.5800        54
    17.6000        48
    17.6200        58
    17.6400        46
    17.6600        46
    17.6800        56
    17.7000        50
    17.7200        48
    17.7400        56
    17.7600        56
    17.7800        46
    17.8000        56
    17.8200        50
    17.8400        56
    17.8600        54
    17.8800        40
    17.9000        58
    17.9200        54
    17.9400        54
    17.9600        60
    17.9800        68
    18.0000        60
    18.0200        54
    18.0400        60
    18.0600        40
    18.0800        54
    18.1000        48
    18.1200        52
    18.1400        58
    18.1600        66
    18.1800        58
    18.2000        54
    18.2200        64
    18.2400        62
    18.2600        58
    18.2800        72
    18.3000        74
    18.3200        68
    18.3400        58
    18.3600        60
    18.3800        82
    18.4000        90
    18.4200        82
    18.4400        88
    18.4600        88
    18.4800       112
    18.5000       124
    18.5200       164
    18.5400       186
    18.5600       222
    18.5800       294
    18.6000       360
    18.6200       324
    18.6400       370
    18.6600       436
    18.6800       416
    18.7000       408
    18.7200       366
    18.7400       368
    18.7600       304
    18.7800       234
    18.8000       176
    18.8200       146
    18.8400       102
    18.8600        90
    18.8800        90
    18.9000        98
    18.9200       106
    18.9400       106
    18.9600        92
    18.9800       120
    19.0000       126
    19.0200       130
    19.0400       156
    19.0600       182
    19.0800       198
    19.1000       276
    19.1200       272
    19.1400       250
    19.1600       296
    19.1800       296
    19.2000       408
    19.2200       386
    19.2400       354
    19.2600       314
    19.2800       222
    19.3000       180
    19.3200       142
    19.3400       114
    19.3600       134
    19.3800       142
    19.4000       136
    19.4200       180
    19.4400       272
    19.4600       390
    19.4800       422
    19.5000       376
    19.5200       292
    19.5400       240
    19.5600       160
    19.5800       112
    19.6000        78
    19.6200        84
    19.6400        86
    19.6600        88
    19.6800        80
    19.7000        76
    19.7200        90
    19.7400       100
    19.7600        62
    19.7800        76
    19.8000        86
    19.8200        78
    19.8400        80
    19.8600        84
    19.8800        76
    19.9000        82
    19.9200       100
    19.9400       102
    19.9600        76
    19.9800        98
    20.0000       108
    20.0200       138
    20.0400       134
    20.0600       176
    20.0800       218
    20.1000       254
    20.1200       216
    20.1400       192
    20.1600       158
    20.1800       130
    20.2000       142
    20.2200       172
    20.2400       176
    20.2600       176
    20.2800       170
    20.3000       156
    20.3200       142
    20.3400       116
    20.3600        74
    20.3800        76
    20.4000        76
    20.4200        64
    20.4400        72
    20.4600        74
    20.4800        60
    20.5000        56
    20.5200        60
    20.5400        64
    20.5600        56
    20.5800        46
    20.6000        46
    20.6200        50
    20.6400        52
    20.6600        74
    20.6800        66
    20.7000        52
    20.7200        66
    20.7400        84
    20.7600        72
    20.7800        94
    20.8000        72
    20.8200        84
    20.8400       108
    20.8600       100
    20.8800       110
    20.9000       120
    20.9200       124
    20.9400       166
    20.9600       216
    20.9800       330
    21.0000       518
    21.0200       450
    21.0400       526
    21.0600       620
    21.0800       592
    21.1000       450
    21.1200       396
    21.1400      8460
    21.1600      3518
    21.1800     12210
    21.2000     11540
    21.2200      7402
    21.2400       146
    21.2600       140
    21.2800       166
    21.3000       172
    21.3200       214
    21.3400       212
    21.3600       262
    21.3800       226
    21.4000       216
    21.4200       206
    21.4400       170
    21.4600       110
    21.4800        96
    21.5000        82
    21.5200        76
    21.5400        56
    21.5600        66
    21.5800        58
    21.6000        48
    21.6200        56
    21.6400        64
    21.6600        50
    21.6800        48
    21.7000        42
    21.7200        44
    21.7400        50
    21.7600        56
    21.7800        52
    21.8000        60
    21.8200        60
    21.8400        44
    21.8600        64
    21.8800        72
    21.9000        46
    21.9200        56
    21.9400        64
    21.9600        70
    21.9800        84
    22.0000        60
    22.0200        46
    22.0400        80
    22.0600        80
    22.0800       102
    22.1000        98
    22.1200       124
    22.1400       136
    22.1600       166
    22.1800       152
    22.2000       142
    22.2200       174
    22.2400       186
    22.2600       162
    22.2800       214
    22.3000       256
    22.3200       348
    22.3400       584
    22.3600       890
    22.3800      1100
    22.4000      1440
    22.4200      1892
    22.4400      1728
    22.4600      1376
    22.4800      1238
    22.5000       854
    22.5200       542
    22.5400       358
    22.5600       266
    22.5800       176
    22.6000       132
    22.6200       126
    22.6400       126
    22.6600       126
    22.6800       108
    22.7000       126
    22.7200       138
    22.7400       132
    22.7600       124
    22.7800       126
    22.8000       114
    22.8200       114
    22.8400       106
    22.8600       122
    22.8800       170
    22.9000       174
    22.9200       218
    22.9400       168
    22.9600       150
    22.9800       132
    23.0000        92
    23.0200        80
    23.0400        70
    23.0600        74
    23.0800        44
    23.1000        40
    23.1200        36
    23.1400        56
    23.1600        52
    23.1800        56
    23.2000        50
    23.2200        46
    23.2400        38
    23.2600        38
    23.2800        40
    23.3000        40
    23.3200        40
    23.3400        46
    23.3600        36
    23.3800        38
    23.4000        32
    23.4200        34
    23.4400        48
    23.4600        50
    23.4800        42
    23.5000        32
    23.5200        46
    23.5400        30
    23.5600        40
    23.5800        40
    23.6000        44
    23.6200        42
    23.6400        46
    23.6600        32
    23.6800        44
    23.7000        52
    23.7200        48
    23.7400        44
    23.7600        36
    23.7800        72
    23.8000        44
    23.8200        56
    23.8400        52
    23.8600        58
    23.8800        62
    23.9000        58
    23.9200        60
    23.9400        46
    23.9600        38
    23.9800        58
    24.0000        60
    24.0200        40
    24.0400        52
    24.0600        42
    24.0800        46
    24.1000        44
    24.1200        34
    24.1400        48
    24.1600        42
    24.1800        46
    24.2000        38
    24.2200        44
    24.2400        56
    24.2600        34
    24.2800        48
    24.3000        40
    24.3200        46
    24.3400        54
    24.3600        50
    24.3800        46
    24.4000        38
    24.4200        36
    24.4400        46
    24.4600        46
    24.4800        40
    24.5000        44
    24.5200        56
    24.5400        38
    24.5600        48
    24.5800        56
    24.6000        78
    24.6200        70
    24.6400        80
    24.6600        92
    24.6800       118
    24.7000       146
    24.7200       126
    24.7400       154
    24.7600       174
    24.7800       178
    24.8000       146
    24.8200       150
    24.8400       148
    24.8600       122
    24.8800       106
    24.9000        96
    24.9200        54
    24.9400        54
    24.9600        46
    24.9800        46
    25.0000        36
    25.0200        38
    25.0400        48
    25.0600        40
    25.0800        42
    25.1000        40
    25.1200        50
    25.1400        40
    25.1600        38
    25.1800        36
    25.2000        22
    25.2200        36
    25.2400        38
    25.2600        34
    25.2800        40
    25.3000        40
    25.3200        42
    25.3400        44
    25.3600        32
    25.3800        32
    25.4000        32
    25.4200        48
    25.4400        34
    25.4600        30
    25.4800        40
    25.5000        18
    25.5200        38
    25.5400        32
    25.5600        28
    25.5800        44
    25.6000        38
    25.6200        48
    25.6400        30
    25.6600        36
    25.6800        42
    25.7000        40
    25.7200        36
    25.7400        42
    25.7600        42
    25.7800        30
    25.8000        44
    25.8200        34
    25.8400        36
    25.8600        30
    25.8800        40
    25.9000        36
    25.9200        44
    25.9400        26
    25.9600        40
    25.9800        26
    26.0000        42
    26.0200        26
    26.0400        30
    26.0600        40
    26.0800        34
    26.1000        40
    26.1200        46
    26.1400        48
    26.1600        44
    26.1800        38
    26.2000        52
    26.2200        54
    26.2400        54
    26.2600        56
    26.2800        70
    26.3000        72
    26.3200        48
    26.3400        50
    26.3600        62
    26.3800        66
    26.4000        68
    26.4200        76
    26.4400       108
    26.4600       116
    26.4800        92
    26.5000        90
    26.5200        84
    26.5400        60
    26.5600        52
    26.5800        52
    26.6000        44
    26.6200        48
    26.6400        42
    26.6600        40
    26.6800        34
    26.7000        34
    26.7200        42
    26.7400        58
    26.7600        46
    26.7800        82
    26.8000        64
    26.8200        78
    26.8400        98
    26.8600       114
    26.8800       124
    26.9000       166
    26.9200       170
    26.9400       186
    26.9600       188
    26.9800       206
    27.0000       158
    27.0200       116
    27.0400       100
    27.0600        82
    27.0800        72
    27.1000        50
    27.1200        52
    27.1400        50
    27.1600        40
    27.1800        46
    27.2000        54
    27.2200        48
    27.2400        42
    27.2600        50
    27.2800        46
    27.3000        36
    27.3200        56
    27.3400        52
    27.3600        46
    27.3800        50
    27.4000        74
    27.4200        76
    27.4400        74
    27.4600        70
    27.4800        90
    27.5000        94
    27.5200        82
    27.5400       104
    27.5600       100
    27.5800       130
    27.6000       138
    27.6200        98
    27.6400        90
    27.6600        88
    27.6800        72
    27.7000        66
    27.7200        64
    27.7400        64
    27.7600        56
    27.7800        76
    27.8000        72
    27.8200        88
    27.8400        74
    27.8600        96
    27.8800       108
    27.9000       128
    27.9200       138
    27.9400       134
    27.9600       166
    27.9800       250
    28.0000       356
    28.0200       496
    28.0400       536
    28.0600       444
    28.0800       368
    28.1000       332
    28.1200       300
    28.1400       236
    28.1600       188
    28.1800       116
    28.2000        86
    28.2200        76
    28.2400        68
    28.2600        62
    28.2800        52
    28.3000        48
    28.3200        48
    28.3400        42
    28.3600        48
    28.3800        48
    28.4000        34
    28.4200        48
    28.4400        46
    28.4600        34
    28.4800        56
    28.5000        54
    28.5200        50
    28.5400        60
    28.5600        60
    28.5800        52
    28.6000        48
    28.6200        62
    28.6400        44
    28.6600        50
    28.6800        70
    28.7000        78
    28.7200        82
    28.7400        94
    28.7600       102
    28.7800       122
    28.8000       112
    28.8200        80
    28.8400        86
    28.8600       100
    28.8800       108
    28.9000        66
    28.9200        76
    28.9400        58
    28.9600        52
    28.9800        48
    29.0000        64
    29.0200        48
    29.0400        58
    29.0600        56
    29.0800        66
    29.1000        68
    29.1200        56
    29.1400        66
    29.1600        54
    29.1800        62
    29.2000        46
    29.2200        44
    29.2400        44
    29.2600        40
    29.2800        50
    29.3000        44
    29.3200        54
    29.3400        46
    29.3600        44
    29.3800        48
    29.4000        50
    29.4200        48
    29.4400        64
    29.4600        68
    29.4800        70
    29.5000        56
    29.5200        64
    29.5400        84
    29.5600        78
    29.5800       112
    29.6000        98
    29.6200        84
    29.6400       120
    29.6600       128
    29.6800       134
    29.7000       208
    29.7200       276
    29.7400       390
    29.7600       432
    29.7800       552
    29.8000       620
    29.8200       722
    29.8400       724
    29.8600       778
    29.8800       780
    29.9000       728
    29.9200       550
    29.9400       426
    29.9600       386
    29.9800       314
    30.0000       216
    30.0200       180
    30.0400       128
    30.0600       108
    30.0800        90
    30.1000        96
    30.1200       134
    30.1400       180
    30.1600       194
    30.1800       136
    30.2000       164
    30.2200       166
    30.2400       182
    30.2600       222
    30.2800       274
    30.3000       290
    30.3200       286
    30.3400       310
    30.3600       312
    30.3800       256
    30.4000       290
    30.4200       308
    30.4400       256
    30.4600       228
    30.4800       218
    30.5000       224
    30.5200       210
    30.5400       184
    30.5600       144
    30.5800       144
    30.6000       118
    30.6200       140
    30.6400       112
    30.6600       136
    30.6800       140
    30.7000       126
    30.7200       178
    30.7400       212
    30.7600       270
    30.7800       336
    30.8000       396
    30.8200       474
    30.8400       528
    30.8600       510
    30.8800       468
    30.9000       388
    30.9200       320
    30.9400       286
    30.9600       234
    30.9800       182
    31.0000       196
    31.0200       170
    31.0400       176
    31.0600       258
    31.0800       302
    31.1000       296
    31.1200       306
    31.1400       322
    31.1600       342
    31.1800       322
    31.2000       370
    31.2200       300
    31.2400       236
    31.2600       186
    31.2800       182
    31.3000       162
    31.3200       102
    31.3400        80
    31.3600        72
    31.3800        48
    31.4000        60
    31.4200        74
    31.4400        54
    31.4600        62
    31.4800        58
    31.5000        56
    31.5200        60
    31.5400        64
    31.5600        66
    31.5800        70
    31.6000        90
    31.6200       106
    31.6400       102
    31.6600       104
    31.6800        88
    31.7000        90
    31.7200        66
    31.7400        82
    31.7600        84
    31.7800        70
    31.8000        62
    31.8200        44
    31.8400        44
    31.8600        54
    31.8800        66
    31.9000        34
    31.9200        46
    31.9400        40
    31.9600        38
    31.9800        50
    32.0000        34
    32.0200        38
    32.0400        32
    32.0600        22
    32.0800        32
    32.1000        32
    32.1200        30
    32.1400        30
    32.1600        34
    32.1800        30
    32.2000        34
    32.2200        36
    32.2400        22
    32.2600        24
    32.2800        20
    32.3000        32
    32.3200        36
    32.3400        38
    32.3600        36
    32.3800        34
    32.4000        24
    32.4200        18
    32.4400        26
    32.4600        28
    32.4800        34
    32.5000        34
    32.5200        32
    32.5400        40
    32.5600        42
    32.5800        28
    32.6000        38
    32.6200        40
    32.6400        42
    32.6600        44
    32.6800        40
    32.7000        40
    32.7200        42
    32.7400        60
    32.7600        54
    32.7800        54
    32.8000        46
    32.8200        30
    32.8400        58
    32.8600        52
    32.8800        56
    32.9000        56
    32.9200        44
    32.9400        48
    32.9600        38
    32.9800        40
    33.0000        44
    33.0200        52
    33.0400        48
    33.0600        52
    33.0800        52
    33.1000        36
    33.1200        48
    33.1400        44
    33.1600        44
    33.1800        58
    33.2000        40
    33.2200        36
    33.2400        38
    33.2600        46
    33.2800        46
    33.3000        52
    33.3200        52
    33.3400        74
    33.3600        84
    33.3800        66
    33.4000        52
    33.4200        48
    33.4400        54
    33.4600        48
    33.4800        50
    33.5000        46
    33.5200        38
    33.5400        26
    33.5600        40
    33.5800        32
    33.6000        36
    33.6200        38
    33.6400        36
    33.6600        32
    33.6800        38
    33.7000        34
    33.7200        34
    33.7400        22
    33.7600        36
    33.7800        20
    33.8000        22
    33.8200        28
    33.8400        32
    33.8600        22
    33.8800        28
    33.9000        50
    33.9200        24
    33.9400        34
    33.9600        30
    33.9800        34
    34.0000        30
    34.0200        32
    34.0400        32
    34.0600        30
    34.0800        34
    34.1000        40
    34.1200        42
    34.1400        38
    34.1600        38
    34.1800        32
    34.2000        52
    34.2200        26
    34.2400        44
    34.2600        38
    34.2800        40
    34.3000        54
    34.3200        66
    34.3400        62
    34.3600        72
    34.3800        86
    34.4000        74
    34.4200        86
    34.4400        68
    34.4600        64
    34.4800        66
    34.5000        52
    34.5200        58
    34.5400        56
    34.5600        62
    34.5800        66
    34.6000       104
    34.6200       122
    34.6400       132
    34.6600       118
    34.6800       128
    34.7000       144
    34.7200       124
    34.7400        94
    34.7600       104
    34.7800       120
    34.8000       122
    34.8200       106
    34.8400        78
    34.8600        72
    34.8800        54
    34.9000        56
    34.9200        48
    34.9400        44
    34.9600        32
    34.9800        28
    35.0000        34
    35.0200        36
    35.0400        36
    35.0600        30
    35.0800        32
    35.1000        28
    35.1200        24
    35.1400        38
    35.1600        34
    35.1800        30
    35.2000        34
    35.2200        30
    35.2400        44
    35.2600        28
    35.2800        28
    35.3000        36
    35.3200        30
    35.3400        22
    35.3600        34
    35.3800        24
    35.4000        36
    35.4200        32
    35.4400        34
    35.4600        32
    35.4800        32
    35.5000        42
    35.5200        38
    35.5400        58
    35.5600        62
    35.5800        64
    35.6000        68
    35.6200        52
    35.6400        68
    35.6600        76
    35.6800       108
    35.7000       124
    35.7200       124
    35.7400       114
    35.7600       130
    35.7800       162
    35.8000       174
    35.8200       134
    35.8400       140
    35.8600       128
    35.8800       144
    35.9000       120
    35.9200       114
    35.9400       138
    35.9600       136
    35.9800       144
    36.0000       140
    36.0200       154
    36.0400       158
    36.0600       146
    36.0800       166
    36.1000       158
    36.1200       142
    36.1400       170
    36.1600       180
    36.1800       186
    36.2000       178
    36.2200       154
    36.2400       130
    36.2600       142
    36.2800       112
    36.3000       102
    36.3200        84
    36.3400        96
    36.3600        62
    36.3800        58
    36.4000        56
    36.4200        34
    36.4400        44
    36.4600        50
    36.4800        56
    36.5000        62
    36.5200        60
    36.5400        80
    36.5600        70
    36.5800       106
    36.6000       134
    36.6200       136
    36.6400       138
    36.6600       126
    36.6800       138
    36.7000       128
    36.7200       122
    36.7400       114
    36.7600       120
    36.7800       138
    36.8000       152
    36.8200       188
    36.8400       200
    36.8600       220
    36.8800       200
    36.9000       168
    36.9200       184
    36.9400       202
    36.9600       204
    36.9800       208
    37.0000       182
    37.0200       162
    37.0400       146
    37.0600       134
    37.0800       128
    37.1000       102
    37.1200        86
    37.1400        80
    37.1600        68
    37.1800        68
    37.2000        64
    37.2200        54
    37.2400        50
    37.2600        36
    37.2800        40
    37.3000        32
    37.3200        50
    37.3400        28
    37.3600        28
    37.3800        28
    37.4000        34
    37.4200        24
    37.4400        34
    37.4600        28
    37.4800        42
    37.5000        36
    37.5200        28
    37.5400        32
    37.5600        42
    37.5800        28
    37.6000        22
    37.6200        28
    37.6400        28
    37.6600        42
    37.6800        46
    37.7000        42
    37.7200        24
    37.7400        46
    37.7600        34
    37.7800        28
    37.8000        36
    37.8200        46
    37.8400        30
    37.8600        30
    37.8800        46
    37.9000        64
    37.9200        62
    37.9400        56
    37.9600        76
    37.9800        68
    38.0000        58
    38.0200        68
    38.0400        84
    38.0600        62
    38.0800        66
    38.1000        44
    38.1200        50
    38.1400        40
    38.1600        46
    38.1800        38
    38.2000        32
    38.2200        26
    38.2400        34
    38.2600        34
    38.2800        32
    38.3000        20
    38.3200        42
    38.3400        38
    38.3600        28
    38.3800        48
    38.4000        28
    38.4200        42
    38.4400        34
    38.4600        30
    38.4800        40
    38.5000        34
    38.5200        48
    38.5400        36
    38.5600        38
    38.5800        46
    38.6000        50
    38.6200        54
    38.6400        48
    38.6600        54
    38.6800        56
    38.7000        90
    38.7200        66
    38.7400        78
    38.7600        72
    38.7800        70
    38.8000       104
    38.8200       124
    38.8400       110
    38.8600       104
    38.8800        88
    38.9000       100
    38.9200        98
    38.9400       102
    38.9600        84
    38.9800        92
    39.0000        82
    39.0200        74
    39.0400        58
    39.0600        64
    39.0800        68
    39.1000        70
    39.1200        54
    39.1400        60
    39.1600        54
    39.1800        78
    39.2000        38
    39.2200        62
    39.2400        70
    39.2600        54
    39.2800        54
    39.3000        50
    39.3200        50
    39.3400        50
    39.3600        40
    39.3800        62
    39.4000        42
    39.4200        52
    39.4400        46
    39.4600        42
    39.4800        48
    39.5000        50
    39.5200        66
    39.5400        50
    39.5600        56
    39.5800        58
    39.6000        36
    39.6200        42
    39.6400        40
    39.6600        40
    39.6800        50
    39.7000        58
    39.7200        40
    39.7400        44
    39.7600        46
    39.7800        40
    39.8000        44
    39.8200        42
    39.8400        40
    39.8600        34
    39.8800        34
    39.9000        54
    39.9200        30
    39.9400        32
    39.9600        46
    39.9800        50
    40.0000        44
    40.0200        52
    40.0400        60
    40.0600        64
    40.0800        54
    40.1000        62
    40.1200        58
    40.1400        74
    40.1600        64
    40.1800        72
    40.2000        68
    40.2200        80
    40.2400        74
    40.2600        80
    40.2800        54
    40.3000        70
    40.3200        58
    40.3400        66
    40.3600        58
    40.3800        64
    40.4000        52
    40.4200        52
    40.4400        38
    40.4600        44
    40.4800        28
    40.5000        48
    40.5200        32
    40.5400        46
    40.5600        52
    40.5800        42
    40.6000        46
    40.6200        52
    40.6400        56
    40.6600        74
    40.6800        80
    40.7000        66
    40.7200        86
    40.7400       108
    40.7600       126
    40.7800       168
    40.8000       176
    40.8200       210
    40.8400       194
    40.8600       244
    40.8800       288
    40.9000       360
    40.9200       494
    40.9400       664
    40.9600       866
    40.9800       842
    41.0000       714
    41.0200       542
    41.0400       454
    41.0600       484
    41.0800       480
    41.1000       406
    41.1200       310
    41.1400       228
    41.1600       178
    41.1800       112
    41.2000       100
    41.2200       106
    41.2400        96
    41.2600        80
    41.2800        80
    41.3000        82
    41.3200        74
    41.3400        54
    41.3600        38
    41.3800        62
    41.4000        60
    41.4200        60
    41.4400        50
    41.4600        52
    41.4800        42
    41.5000        50
    41.5200        44
    41.5400        44
    41.5600        58
    41.5800        46
    41.6000        42
    41.6200        50
    41.6400        48
    41.6600        74
    41.6800        42
    41.7000        42
    41.7200        66
    41.7400        70
    41.7600        66
    41.7800        50
    41.8000        44
    41.8200        52
    41.8400        38
    41.8600        38
    41.8800        42
    41.9000        48
    41.9200        38
    41.9400        32
    41.9600        22
    41.9800        36
    42.0000        30
    42.0200        38
    42.0400        22
    42.0600        36
    42.0800        32
    42.1000        30
    42.1200        40
    42.1400        48
    42.1600        38
    42.1800        32
    42.2000        40
    42.2200        64
    42.2400        62
    42.2600        46
    42.2800        74
    42.3000        64
    42.3200        54
    42.3400        58
    42.3600        56
    42.3800        64
    42.4000        70
    42.4200        54
    42.4400        66
    42.4600        58
    42.4800        60
    42.5000        58
    42.5200        54
    42.5400        58
    42.5600        70
    42.5800        54
    42.6000        78
    42.6200        74
    42.6400        78
    42.6600       102
    42.6800       116
    42.7000        86
    42.7200        90
    42.7400        96
    42.7600       112
    42.7800       118
    42.8000        90
    42.8200        98
    42.8400        76
    42.8600        72
    42.8800        58
    42.9000        60
    42.9200        72
    42.9400        68
    42.9600        66
    42.9800        54
    43.0000        48
    43.0200        48
    43.0400        50
    43.0600        52
    43.0800        44
    43.1000        46
    43.1200        48
    43.1400        44
    43.1600        48
    43.1800        50
    43.2000        44
    43.2200        44
    43.2400        48
    43.2600        56
    43.2800        56
    43.3000        76
    43.3200        84
    43.3400        92
    43.3600        70
    43.3800        80
    43.4000        72
    43.4200        72
    43.4400        80
    43.4600        70
    43.4800        62
    43.5000        60
    43.5200        58
    43.5400        60
    43.5600        74
    43.5800        72
    43.6000        88
    43.6200       106
    43.6400        84
    43.6600        68
    43.6800        86
    43.7000        76
    43.7200        70
    43.7400        60
    43.7600        48
    43.7800        48
    43.8000        44
    43.8200        42
    43.8400        58
    43.8600        36
    43.8800        44
    43.9000        44
    43.9200        50
    43.9400        36
    43.9600        46
    43.9800        50
    44.0000        44
    44.0200        64
    44.0400        66
    44.0600        74
    44.0800        54
    44.1000        70
    44.1200        64
    44.1400        54
    44.1600        72
    44.1800        74
    44.2000        54
    44.2200        54
    44.2400        44
    44.2600        32
    44.2800        42
    44.3000        34
    44.3200        28
    44.3400        22
    44.3600        30
    44.3800        30
    44.4000        28
    44.4200        34
    44.4400        34
    44.4600        24
    44.4800        26
    44.5000        28
    44.5200        24
    44.5400        40
    44.5600        36
    44.5800        48
    44.6000        46
    44.6200        54
    44.6400        44
    44.6600        50
    44.6800        56
    44.7000        44
    44.7200        58
    44.7400        50
    44.7600        50
    44.7800        48
    44.8000        40
    44.8200        42
    44.8400        52
    44.8600        40
    44.8800        48
    44.9000        42
    44.9200        56
    44.9400        60
    44.9600        64
    44.9800        62
    45.0000        60
    45.0200        84
    45.0400        70
    45.0600        66
    45.0800        62
    45.1000        56
    45.1200        68
    45.1400        80
    45.1600        74
    45.1800       102
    45.2000        84
    45.2200       102
    45.2400        88
    45.2600        80
    45.2800        78
    45.3000        60
    45.3200        76
    45.3400        66
    45.3600        74
    45.3800        48
    45.4000        42
    45.4200        50
    45.4400        44
    45.4600        42
    45.4800        64
    45.5000        44
    45.5200        54
    45.5400        48
    45.5600        34
    45.5800        36
    45.6000        42
    45.6200        44
    45.6400        46
    45.6600        54
    45.6800        46
    45.7000        40
    45.7200        32
    45.7400        28
    45.7600        30
    45.7800        44
    45.8000        42
    45.8200        46
    45.8400        36
    45.8600        26
    45.8800        30
    45.9000        36
    45.9200        32
    45.9400        38
    45.9600        46
    45.9800        36
    46.0000        38
    46.0200        32
    46.0400        28
    46.0600        32
    46.0800        42
    46.1000        28
    46.1200        34
    46.1400        50
    46.1600        54
    46.1800        48
    46.2000        38
    46.2200        40
    46.2400        40
    46.2600        44
    46.2800        44
    46.3000        50
    46.3200        60
    46.3400        66
    46.3600        48
    46.3800        54
    46.4000        46
    46.4200        50
    46.4400        46
    46.4600        62
    46.4800        54
    46.5000        48
    46.5200        36
    46.5400        78
    46.5600        58
    46.5800        74
    46.6000        84
    46.6200        66
    46.6400        54
    46.6600        60
    46.6800        48
    46.7000        56
    46.7200        66
    46.7400        52
    46.7600        54
    46.7800        48
    46.8000        30
    46.8200        30
    46.8400        26
    46.8600        34
    46.8800        44
    46.9000        46
    46.9200        44
    46.9400        36
    46.9600        34
    46.9800        30
    47.0000        34
    47.0200        36
    47.0400        36
    47.0600        36
    47.0800        22
    47.1000        14
    47.1200        36
    47.1400        28
    47.1600        24
    47.1800        36
    47.2000        16
    47.2200        26
    47.2400        34
    47.2600        34
    47.2800        26
    47.3000        34
    47.3200        30
    47.3400        20
    47.3600        26
    47.3800        26
    47.4000        36
    47.4200        32
    47.4400        20
    47.4600        36
    47.4800        26
    47.5000        44
    47.5200        32
    47.5400        24
    47.5600        40
    47.5800        32
    47.6000        26
    47.6200        24
    47.6400        34
    47.6600        40
    47.6800        36
    47.7000        48
    47.7200        40
    47.7400        38
    47.7600        26
    47.7800        34
    47.8000        34
    47.8200        26
    47.8400        36
    47.8600        38
    47.8800        32
    47.9000        40
    47.9200        22
    47.9400        26
    47.9600        26
    47.9800        30
    48.0000        18
    48.0200        26
    48.0400        28
    48.0600        28
    48.0800        24
    48.1000        18
    48.1200        36
    48.1400        30
    48.1600        42
    48.1800        28
    48.2000        26
    48.2200        30
    48.2400        42
    48.2600        26
    48.2800        46
    48.3000        28
    48.3200        34
    48.3400        30
    48.3600        28
    48.3800        48
    48.4000        36
    48.4200        44
    48.4400        42
    48.4600        44
    48.4800        38
    48.5000        46
    48.5200        42
    48.5400        52
    48.5600        52
    48.5800        52
    48.6000        50
    48.6200        66
    48.6400        62
    48.6600        46
    48.6800        48
    48.7000        58
    48.7200        52
    48.7400        42
    48.7600        52
    48.7800        66
    48.8000        36
    48.8200        60
    48.8400        58
    48.8600        70
    48.8800        62
    48.9000        80
    48.9200        68
    48.9400        46
    48.9600        42
    48.9800        88
    49.0000        82
    49.0200       100
    49.0400        90
    49.0600       118
    49.0800       114
    49.1000       128
    49.1200       118
    49.1400       114
    49.1600       122
    49.1800        98
    49.2000        80
    49.2200        84
    49.2400        76
    49.2600        74
    49.2800        78
    49.3000        62
    49.3200        50
    49.3400        42
    49.3600        36
    49.3800        30
    49.4000        34
    49.4200        34
    49.4400        32
    49.4600        36
    49.4800        34
    49.5000        40
    49.5200        34
    49.5400        26
    49.5600        32
    49.5800        34
    49.6000        34
    49.6200        36
    49.6400        46
    49.6600        30
    49.6800        38
    49.7000        30
    49.7200        40
    49.7400        32
    49.7600        30
    49.7800        36
    49.8000        38
    49.8200        30
    49.8400        38
    49.8600        50
    49.8800        34
    49.9000        36
    49.9200        28
    49.9400        36
    49.9600        26
    49.9800        34
    50.0000        36
    50.0200        36
    50.0400        44
    50.0600        54
    50.0800        44
    50.1000        48
    50.1200        54
    50.1400        68
    50.1600        70
    50.1800        64
    50.2000        66
    50.2200       106
    50.2400       160
    50.2600       164
    50.2800       180
    50.3000       214
    50.3200       140
    50.3400       148
    50.3600       140
    50.3800       172
    50.4000       174
    50.4200       174
    50.4400       122
    50.4600       136
    50.4800       100
    50.5000        84
    50.5200       100
    50.5400        98
    50.5600       106
    50.5800        78
    50.6000        78
    50.6200        76
    50.6400        72
    50.6600        64
    50.6800        62
    50.7000        54
    50.7200        44
    50.7400        48
    50.7600        44
    50.7800        34
    50.8000        42
    50.8200        46
    50.8400        42
    50.8600        46
    50.8800        38
    50.9000        50
    50.9200        62
    50.9400        72
    50.9600       114
    50.9800       112
    51.0000        88
    51.0200        72
    51.0400        60
    51.0600        60
    51.0800        58
    51.1000        60
    51.1200        98
    51.1400        70
    51.1600        68
    51.1800        44
    51.2000        58
    51.2200        44
    51.2400        48
    51.2600        50
    51.2800        46
    51.3000        60
    51.3200        76
    51.3400        52
    51.3600        52
    51.3800        60
    51.4000        66
    51.4200        90
    51.4400        92
    51.4600        96
    51.4800       120
    51.5000       128
    51.5200       124
    51.5400       146
    51.5600       128
    51.5800       112
    51.6000       102
    51.6200        82
    51.6400        96
    51.6600        96
    51.6800        92
    51.7000        74
    51.7200        58
    51.7400        54
    51.7600        54
    51.7800        46
    51.8000        48
    51.8200        62
    51.8400        52
    51.8600        50
    51.8800        60
    51.9000        62
    51.9200        66
    51.9400        70
    51.9600        58
    51.9800        60
    52.0000        68
    52.0200        52
    52.0400        76
    52.0600        82
    52.0800       110
    52.1000       122
    52.1200       196
    52.1400       408
    52.1600       560
    52.1800       384
    52.2000       234
    52.2200       180
    52.2400       138
    52.2600       166
    52.2800       248
    52.3000       318
    52.3200       190
    52.3400       116
    52.3600       102
    52.3800        72
    52.4000        68
    52.4200        68
    52.4400        60
    52.4600        44
    52.4800        40
    52.5000        52
    52.5200        48
    52.5400        36
    52.5600        56
    52.5800        72
    52.6000        72
    52.6200        80
    52.6400        92
    52.6600        78
    52.6800        74
    52.7000        52
    52.7200        54
    52.7400        54
    52.7600        56
    52.7800        60
    52.8000        66
    52.8200        44
    52.8400        52
    52.8600        38
    52.8800        24
    52.9000        50
    52.9200        42
    52.9400        32
    52.9600        52
    52.9800        80
    53.0000        84
    53.0200       104
    53.0400       108
    53.0600       108
    53.0800        74
    53.1000        74
    53.1200        76
    53.1400        70
    53.1600        84
    53.1800        94
    53.2000        88
    53.2200       106
    53.2400        96
    53.2600        64
    53.2800        86
    53.3000        88
    53.3200        58
    53.3400        70
    53.3600        76
    53.3800        54
    53.4000        56
    53.4200        50
    53.4400        44
    53.4600        32
    53.4800        48
    53.5000        40
    53.5200        52
    53.5400        50
    53.5600        40
    53.5800        32
    53.6000        42
    53.6200        30
    53.6400        42
    53.6600        26
    53.6800        36
    53.7000        36
    53.7200        36
    53.7400        30
    53.7600        36
    53.7800        30
    53.8000        32
    53.8200        36
    53.8400        22
    53.8600        44
    53.8800        40
    53.9000        34
    53.9200        32
    53.9400        30
    53.9600        36
    53.9800        20
    54.0000        18
    54.0200        42
    54.0400        32
    54.0600        44
    54.0800        32
    54.1000        38
    54.1200        42
    54.1400        36
    54.1600        42
    54.1800        48
    54.2000        50
    54.2200        44
    54.2400        44
    54.2600        42
    54.2800        52
    54.3000        42
    54.3200        54
    54.3400        44
    54.3600        48
    54.3800        40
    54.4000        62
    54.4200        58
    54.4400        54
    54.4600        44
    54.4800        58
    54.5000        42
    54.5200        50
    54.5400        48
    54.5600        46
    54.5800        54
    54.6000        38
    54.6200        44
    54.6400        30
    54.6600        42
    54.6800        48
    54.7000        28
    54.7200        48
    54.7400        34
    54.7600        36
    54.7800        30
    54.8000        44
    54.8200        30
    54.8400        24
    54.8600        46
    54.8800        34
    54.9000        46
    54.9200        36
    54.9400        34
    54.9600        34
    54.9800        32
    55.0000        28
    55.0200        34
    55.0400        40
    55.0600        32
    55.0800        44
    55.1000        52
    55.1200        36
    55.1400        38
    55.1600        42
    55.1800        46
    55.2000        56
    55.2200        72
    55.2400        56
    55.2600        60
    55.2800        62
    55.3000        52
    55.3200        50
    55.3400        72
    55.3600        82
    55.3800        90
    55.4000       104
    55.4200        94
    55.4400       102
    55.4600        70
    55.4800        62
    55.5000        58
    55.5200        58
    55.5400        72
    55.5600       104
    55.5800       126
    55.6000       156
    55.6200       196
    55.6400       210
    55.6600       170
    55.6800       142
    55.7000       100
    55.7200        88
    55.7400        74
    55.7600       100
    55.7800       104
    55.8000       106
    55.8200        88
    55.8400        68
    55.8600        68
    55.8800        54
    55.9000        46
    55.9200        40
    55.9400        36
    55.9600        40
    55.9800        46
    56.0000        66
    56.0200        64
    56.0400        58
    56.0600        72
    56.0800        66
    56.1000        80
    56.1200        62
    56.1400        58
    56.1600        62
    56.1800        58
    56.2000        44
    56.2200        60
    56.2400        56
    56.2600        58
    56.2800        48
    56.3000        38
    56.3200        46
    56.3400        46
    56.3600        48
    56.3800        48
    56.4000        36
    56.4200        40
    56.4400        36
    56.4600        46
    56.4800        42
    56.5000        36
    56.5200        36
    56.5400        38
    56.5600        50
    56.5800        54
    56.6000        62
    56.6200        46
    56.6400        42
    56.6600        58
    56.6800        46
    56.7000        50
    56.7200        64
    56.7400        54
    56.7600        62
    56.7800        80
    56.8000        84
    56.8200       114
    56.8400       114
    56.8600       112
    56.8800        86
    56.9000        58
    56.9200        58
    56.9400        76
    56.9600        74
    56.9800        70
    57.0000        94
    57.0200        76
    57.0400       100
    57.0600        74
    57.0800        88
    57.1000        72
    57.1200        90
    57.1400        94
    57.1600        64
    57.1800        70
    57.2000        50
    57.2200        78
    57.2400        74
    57.2600        52
    57.2800        66
    57.3000        60
    57.3200        74
    57.3400        78
    57.3600        84
    57.3800        60
    57.4000        54
    57.4200        48
    57.4400        48
    57.4600        42
    57.4800        48
    57.5000        50
    57.5200        52
    57.5400        58
    57.5600        58
    57.5800        46
    57.6000        48
    57.6200        52
    57.6400        50
    57.6600        54
    57.6800        56
    57.7000        62
    57.7200        66
    57.7400        64
    57.7600        66
    57.7800        98
    57.8000       116
    57.8200       122
    57.8400       148
    57.8600       148
    57.8800       142
    57.9000       106
    57.9200       136
    57.9400       108
    57.9600       112
    57.9800       112
    58.0000       118
    58.0200       128
    58.0400       120
    58.0600       118
    58.0800       122
    58.1000       138
    58.1200       132
    58.1400       132
    58.1600       152
    58.1800       204
    58.2000       268
    58.2200       284
    58.2400       408
    58.2600       508
    58.2800       744
    58.3000       946
    58.3200       840
    58.3400       612
    58.3600       432
    58.3800       342
    58.4000       292
    58.4200       302
    58.4400       404
    58.4600       466
    58.4800       398
    58.5000       264
    58.5200       176
    58.5400       144
    58.5600       102
    58.5800        84
    58.6000        58
    58.6200        64
    58.6400        58
    58.6600        68
    58.6800        64
    58.7000        70
    58.7200        66
    58.7400        48
    58.7600        42
    58.7800        52
    58.8000        42
    58.8200        56
    58.8400        54
    58.8600        56
    58.8800        58
    58.9000        34
    58.9200        36
    58.9400        28
    58.9600        40
    58.9800        28
    59.0000        32
    59.0200        38
    59.0400        28
    59.0600        50
    59.0800        34
    59.1000        26
    59.1200        26
    59.1400        34
    59.1600        36
    59.1800        32
    59.2000        38
    59.2200        30
    59.2400        34
    59.2600        40
    59.2800        36
    59.3000        28
    59.3200        32
    59.3400        54
    59.3600        36
    59.3800        36
    59.4000        34
    59.4200        46
    59.4400        38
    59.4600        44
    59.4800        42
    59.5000        64
    59.5200        60
    59.5400        64
    59.5600        70
    59.5800        68
    59.6000        58
    59.6200        66
    59.6400        56
    59.6600        64
    59.6800        44
    59.7000        52
    59.7200        62
    59.7400        56
    59.7600        58
    59.7800        56
    59.8000        56
    59.8200        50
    59.8400        70
    59.8600        58
    59.8800        48
    59.9000        46
    59.9200        40
    59.9400        48
    59.9600        42
    59.9800        52
    60.0000        56
    60.0200        48
    60.0400        34
    60.0600        48
    60.0800        50
    60.1000        44
    60.1200        42
    60.1400        60
    60.1600        76
    60.1800        72
    60.2000        62
    60.2200        52
    60.2400        64
    60.2600        46
    60.2800        52
    60.3000        56
    60.3200        58
    60.3400        48
    60.3600        58
    60.3800        38
    60.4000        28
    60.4200        50
    60.4400        50
    60.4600        40
    60.4800        44
    60.5000        38
    60.5200        56
    60.5400        40
    60.5600        36
    60.5800        44
    60.6000        40
    60.6200        22
    60.6400        52
    60.6600        62
    60.6800        72
    60.7000        60
    60.7200        58
    60.7400        44
    60.7600        38
    60.7800        60
    60.8000        56
    60.8200        62
    60.8400        46
    60.8600        62
    60.8800        46
    60.9000        54
    60.9200        52
    60.9400        42
    60.9600        36
    60.9800        38
    61.0000        40
    61.0200        42
    61.0400        38
    61.0600        42
    61.0800        34
    61.1000        40
    61.1200        48
    61.1400        36
    61.1600        38
    61.1800        28
    61.2000        24
    61.2200        28
    61.2400        26
    61.2600        34
    61.2800        24
    61.3000        34
    61.3200        28
    61.3400        32
    61.3600        34
    61.3800        30
    61.4000        38
    61.4200        42
    61.4400        24
    61.4600        20
    61.4800        16
    61.5000        28
    61.5200        30
    61.5400        20
    61.5600        28
    61.5800        24
    61.6000        30
    61.6200        40
    61.6400        14
    61.6600        28
    61.6800        34
    61.7000        30
    61.7200        38
    61.7400        26
    61.7600        42
    61.7800        44
    61.8000        40
    61.8200        42
    61.8400        48
    61.8600        42
    61.8800        36
    61.9000        50
    61.9200        46
    61.9400        40
    61.9600        52
    61.9800        46
    62.0000        60
    62.0200        62
    62.0400        60
    62.0600        44
    62.0800        48
    62.1000        78
    62.1200        96
    62.1400       110
    62.1600        80
    62.1800       104
    62.2000        92
    62.2200        88
    62.2400        84
    62.2600        82
    62.2800        92
    62.3000        78
    62.3200        84
    62.3400        56
    62.3600        58
    62.3800        56
    62.4000        52
    62.4200        42
    62.4400        50
    62.4600        44
    62.4800        56
    62.5000        38
    62.5200        46
    62.5400        48
    62.5600        44
    62.5800        42
    62.6000        36
    62.6200        44
    62.6400        50
    62.6600        52
    62.6800        38
    62.7000        54
    62.7200        54
    62.7400        50
    62.7600        42
    62.7800        36
    62.8000        44
    62.8200        58
    62.8400        38
    62.8600        60
    62.8800        46
    62.9000        64
    62.9200        74
    62.9400        84
    62.9600        88
    62.9800       112
    63.0000       104
    63.0200       108
    63.0400       104
    63.0600        96
    63.0800       102
    63.1000       108
    63.1200        90
    63.1400        82
    63.1600        88
    63.1800        72
    63.2000        78
    63.2200        80
    63.2400        76
    63.2600        64
    63.2800        62
    63.3000        56
    63.3200        52
    63.3400        84
    63.3600        64
    63.3800        64
    63.4000        58
    63.4200        72
    63.4400        72
    63.4600        74
    63.4800        56
    63.5000        80
    63.5200       102
    63.5400       110
    63.5600       152
    63.5800       118
    63.6000       128
    63.6200       118
    63.6400       106
    63.6600        86
    63.6800       108
    63.7000        82
    63.7200        90
    63.7400        94
    63.7600        78
    63.7800        94
    63.8000        64
    63.8200        68
    63.8400        60
    63.8600        62
    63.8800        56
    63.9000        46
    63.9200        42
    63.9400        36
    63.9600        50
    63.9800        50
    64.0000        36
    64.0200        40
    64.0400        36
    64.0600        40
    64.0800        52
    64.1000        26
    64.1200        30
    64.1400        38
    64.1600        38
    64.1800        30
    64.2000        32
    64.2200        32
    64.2400        30
    64.2600        16
    64.2800        28
    64.3000        34
    64.3200        38
    64.3400        32
    64.3600        26
    64.3800        26
    64.4000        24
    64.4200        38
    64.4400        22
    64.4600        18
    64.4800        28
    64.5000        24
    64.5200        28
    64.5400        30
    64.5600        36
    64.5800        34
    64.6000        24
    64.6200        34
    64.6400        26
    64.6600        34
    64.6800        28
    64.7000        22
    64.7200        24
    64.7400        30
    64.7600        48
    64.7800        36
    64.8000        48
    64.8200        38
    64.8400        36
    64.8600        46
    64.8800        40
    64.9000        32
    64.9200        40
    64.9400        54
    64.9600        52
    64.9800        48
    65.0000        42
