/////////////////////////////////////////////////////////////////////////////////
/// Profile Data Ascii Dump (XRD)                                             ///
/////////////////////////////////////////////////////////////////////////////////

  Group     : Swayze
  Data      : GDS68
  File Name : GDS68.RAW

# Profile Datafile
          comment             = C lamp black 
          date & time         = 08-03-14 07:57:50 

# Measurement Condition
    X-ray tube
          target              = Cu 
          voltage             = 40.0 (kV)
          current             = 30.0 (mA)
    Slits
          divergence slit     = 2.00000 (deg) 
          scatter slit        = 2.00000 (deg) 
          receiving slit      = 0.15000 (mm)  
    Scanning
          drive axis          = Theta-2Theta 
          scan range          =    4.000 -   65.000 
          scan mode           = Continuous Scan 
          scan speed          =   2.0000 (deg/min) 
          sampling pitch      =   0.0200 (deg) 
          preset time         =   0.60 (sec) 

# Data      [ Total No. = 3051 ]
  <2Theta>   <   I   >
     4.0000       506
     4.0200       510
     4.0400       524
     4.0600       482
     4.0800       516
     4.1000       508
     4.1200       498
     4.1400       524
     4.1600       504
     4.1800       500
     4.2000       526
     4.2200       494
     4.2400       506
     4.2600       480
     4.2800       530
     4.3000       482
     4.3200       510
     4.3400       448
     4.3600       482
     4.3800       508
     4.4000       504
     4.4200       514
     4.4400       504
     4.4600       488
     4.4800       490
     4.5000       446
     4.5200       466
     4.5400       482
     4.5600       464
     4.5800       504
     4.6000       450
     4.6200       492
     4.6400       458
     4.6600       434
     4.6800       476
     4.7000       480
     4.7200       452
     4.7400       488
     4.7600       484
     4.7800       468
     4.8000       446
     4.8200       470
     4.8400       446
     4.8600       472
     4.8800       462
     4.9000       492
     4.9200       456
     4.9400       476
     4.9600       490
     4.9800       484
     5.0000       436
     5.0200       448
     5.0400       476
     5.0600       440
     5.0800       418
     5.1000       444
     5.1200       470
     5.1400       428
     5.1600       428
     5.1800       488
     5.2000       430
     5.2200       416
     5.2400       418
     5.2600       468
     5.2800       444
     5.3000       456
     5.3200       470
     5.3400       408
     5.3600       430
     5.3800       432
     5.4000       458
     5.4200       468
     5.4400       430
     5.4600       412
     5.4800       430
     5.5000       410
     5.5200       430
     5.5400       450
     5.5600       426
     5.5800       434
     5.6000       422
     5.6200       424
     5.6400       430
     5.6600       430
     5.6800       424
     5.7000       458
     5.7200       446
     5.7400       432
     5.7600       406
     5.7800       394
     5.8000       416
     5.8200       420
     5.8400       452
     5.8600       428
     5.8800       418
     5.9000       410
     5.9200       408
     5.9400       370
     5.9600       444
     5.9800       376
     6.0000       418
     6.0200       406
     6.0400       426
     6.0600       394
     6.0800       436
     6.1000       434
     6.1200       404
     6.1400       422
     6.1600       398
     6.1800       388
     6.2000       374
     6.2200       412
     6.2400       418
     6.2600       394
     6.2800       416
     6.3000       372
     6.3200       372
     6.3400       414
     6.3600       388
     6.3800       368
     6.4000       374
     6.4200       396
     6.4400       392
     6.4600       374
     6.4800       416
     6.5000       412
     6.5200       408
     6.5400       374
     6.5600       392
     6.5800       394
     6.6000       382
     6.6200       394
     6.6400       424
     6.6600       350
     6.6800       380
     6.7000       376
     6.7200       398
     6.7400       374
     6.7600       380
     6.7800       366
     6.8000       368
     6.8200       376
     6.8400       368
     6.8600       330
     6.8800       362
     6.9000       352
     6.9200       374
     6.9400       350
     6.9600       352
     6.9800       336
     7.0000       336
     7.0200       346
     7.0400       358
     7.0600       350
     7.0800       340
     7.1000       354
     7.1200       376
     7.1400       378
     7.1600       354
     7.1800       344
     7.2000       332
     7.2200       352
     7.2400       342
     7.2600       344
     7.2800       316
     7.3000       342
     7.3200       308
     7.3400       352
     7.3600       358
     7.3800       350
     7.4000       334
     7.4200       384
     7.4400       358
     7.4600       362
     7.4800       336
     7.5000       348
     7.5200       370
     7.5400       336
     7.5600       330
     7.5800       314
     7.6000       374
     7.6200       310
     7.6400       314
     7.6600       312
     7.6800       326
     7.7000       330
     7.7200       342
     7.7400       312
     7.7600       322
     7.7800       330
     7.8000       334
     7.8200       308
     7.8400       316
     7.8600       350
     7.8800       326
     7.9000       320
     7.9200       316
     7.9400       352
     7.9600       328
     7.9800       342
     8.0000       316
     8.0200       318
     8.0400       320
     8.0600       340
     8.0800       338
     8.1000       330
     8.1200       336
     8.1400       304
     8.1600       322
     8.1800       348
     8.2000       312
     8.2200       328
     8.2400       322
     8.2600       344
     8.2800       308
     8.3000       324
     8.3200       312
     8.3400       294
     8.3600       320
     8.3800       334
     8.4000       328
     8.4200       334
     8.4400       342
     8.4600       318
     8.4800       330
     8.5000       352
     8.5200       306
     8.5400       338
     8.5600       354
     8.5800       340
     8.6000       322
     8.6200       298
     8.6400       318
     8.6600       314
     8.6800       348
     8.7000       306
     8.7200       316
     8.7400       296
     8.7600       336
     8.7800       354
     8.8000       294
     8.8200       356
     8.8400       320
     8.8600       350
     8.8800       292
     8.9000       314
     8.9200       296
     8.9400       326
     8.9600       328
     8.9800       324
     9.0000       318
     9.0200       322
     9.0400       320
     9.0600       342
     9.0800       324
     9.1000       334
     9.1200       308
     9.1400       306
     9.1600       330
     9.1800       330
     9.2000       302
     9.2200       298
     9.2400       338
     9.2600       314
     9.2800       324
     9.3000       326
     9.3200       318
     9.3400       304
     9.3600       310
     9.3800       294
     9.4000       316
     9.4200       312
     9.4400       316
     9.4600       278
     9.4800       314
     9.5000       312
     9.5200       316
     9.5400       290
     9.5600       298
     9.5800       302
     9.6000       304
     9.6200       284
     9.6400       308
     9.6600       296
     9.6800       318
     9.7000       314
     9.7200       294
     9.7400       314
     9.7600       296
     9.7800       296
     9.8000       312
     9.8200       278
     9.8400       340
     9.8600       286
     9.8800       296
     9.9000       290
     9.9200       290
     9.9400       286
     9.9600       288
     9.9800       348
    10.0000       270
    10.0200       290
    10.0400       292
    10.0600       326
    10.0800       310
    10.1000       280
    10.1200       292
    10.1400       292
    10.1600       288
    10.1800       302
    10.2000       302
    10.2200       306
    10.2400       308
    10.2600       294
    10.2800       320
    10.3000       286
    10.3200       264
    10.3400       278
    10.3600       292
    10.3800       306
    10.4000       306
    10.4200       278
    10.4400       260
    10.4600       284
    10.4800       308
    10.5000       274
    10.5200       308
    10.5400       278
    10.5600       280
    10.5800       324
    10.6000       308
    10.6200       292
    10.6400       280
    10.6600       306
    10.6800       278
    10.7000       290
    10.7200       290
    10.7400       306
    10.7600       318
    10.7800       272
    10.8000       290
    10.8200       288
    10.8400       284
    10.8600       270
    10.8800       274
    10.9000       296
    10.9200       280
    10.9400       288
    10.9600       314
    10.9800       272
    11.0000       264
    11.0200       276
    11.0400       290
    11.0600       310
    11.0800       266
    11.1000       276
    11.1200       306
    11.1400       282
    11.1600       292
    11.1800       270
    11.2000       260
    11.2200       278
    11.2400       320
    11.2600       288
    11.2800       284
    11.3000       282
    11.3200       272
    11.3400       286
    11.3600       272
    11.3800       308
    11.4000       280
    11.4200       238
    11.4400       284
    11.4600       266
    11.4800       262
    11.5000       280
    11.5200       250
    11.5400       280
    11.5600       226
    11.5800       280
    11.6000       260
    11.6200       276
    11.6400       298
    11.6600       278
    11.6800       264
    11.7000       284
    11.7200       256
    11.7400       260
    11.7600       270
    11.7800       278
    11.8000       266
    11.8200       268
    11.8400       274
    11.8600       256
    11.8800       292
    11.9000       270
    11.9200       278
    11.9400       258
    11.9600       280
    11.9800       280
    12.0000       270
    12.0200       260
    12.0400       280
    12.0600       282
    12.0800       260
    12.1000       246
    12.1200       310
    12.1400       298
    12.1600       274
    12.1800       278
    12.2000       256
    12.2200       272
    12.2400       282
    12.2600       280
    12.2800       266
    12.3000       238
    12.3200       244
    12.3400       266
    12.3600       268
    12.3800       280
    12.4000       250
    12.4200       280
    12.4400       308
    12.4600       266
    12.4800       290
    12.5000       304
    12.5200       268
    12.5400       268
    12.5600       256
    12.5800       252
    12.6000       256
    12.6200       288
    12.6400       254
    12.6600       282
    12.6800       284
    12.7000       250
    12.7200       238
    12.7400       250
    12.7600       248
    12.7800       258
    12.8000       272
    12.8200       240
    12.8400       248
    12.8600       258
    12.8800       238
    12.9000       242
    12.9200       288
    12.9400       260
    12.9600       232
    12.9800       268
    13.0000       256
    13.0200       236
    13.0400       260
    13.0600       270
    13.0800       264
    13.1000       280
    13.1200       276
    13.1400       282
    13.1600       246
    13.1800       258
    13.2000       236
    13.2200       256
    13.2400       260
    13.2600       222
    13.2800       270
    13.3000       256
    13.3200       266
    13.3400       250
    13.3600       264
    13.3800       248
    13.4000       266
    13.4200       256
    13.4400       246
    13.4600       284
    13.4800       270
    13.5000       248
    13.5200       244
    13.5400       268
    13.5600       270
    13.5800       238
    13.6000       242
    13.6200       292
    13.6400       262
    13.6600       262
    13.6800       268
    13.7000       254
    13.7200       246
    13.7400       270
    13.7600       260
    13.7800       270
    13.8000       260
    13.8200       236
    13.8400       284
    13.8600       256
    13.8800       262
    13.9000       254
    13.9200       248
    13.9400       284
    13.9600       236
    13.9800       282
    14.0000       246
    14.0200       292
    14.0400       280
    14.0600       246
    14.0800       244
    14.1000       274
    14.1200       252
    14.1400       272
    14.1600       248
    14.1800       284
    14.2000       282
    14.2200       284
    14.2400       304
    14.2600       246
    14.2800       264
    14.3000       270
    14.3200       256
    14.3400       282
    14.3600       278
    14.3800       272
    14.4000       236
    14.4200       280
    14.4400       288
    14.4600       258
    14.4800       262
    14.5000       278
    14.5200       244
    14.5400       262
    14.5600       256
    14.5800       250
    14.6000       322
    14.6200       254
    14.6400       264
    14.6600       254
    14.6800       288
    14.7000       242
    14.7200       264
    14.7400       258
    14.7600       230
    14.7800       300
    14.8000       292
    14.8200       264
    14.8400       256
    14.8600       272
    14.8800       282
    14.9000       280
    14.9200       242
    14.9400       274
    14.9600       242
    14.9800       234
    15.0000       258
    15.0200       260
    15.0400       256
    15.0600       274
    15.0800       256
    15.1000       268
    15.1200       228
    15.1400       304
    15.1600       260
    15.1800       292
    15.2000       272
    15.2200       300
    15.2400       254
    15.2600       298
    15.2800       278
    15.3000       266
    15.3200       280
    15.3400       268
    15.3600       284
    15.3800       264
    15.4000       254
    15.4200       268
    15.4400       292
    15.4600       290
    15.4800       264
    15.5000       272
    15.5200       286
    15.5400       256
    15.5600       266
    15.5800       268
    15.6000       266
    15.6200       262
    15.6400       280
    15.6600       270
    15.6800       290
    15.7000       272
    15.7200       266
    15.7400       274
    15.7600       270
    15.7800       274
    15.8000       270
    15.8200       296
    15.8400       294
    15.8600       260
    15.8800       288
    15.9000       290
    15.9200       278
    15.9400       304
    15.9600       258
    15.9800       288
    16.0000       256
    16.0200       252
    16.0400       290
    16.0600       294
    16.0800       254
    16.1000       298
    16.1200       292
    16.1400       276
    16.1600       286
    16.1800       296
    16.2000       270
    16.2200       236
    16.2400       280
    16.2600       280
    16.2800       262
    16.3000       280
    16.3200       294
    16.3400       286
    16.3600       304
    16.3800       270
    16.4000       284
    16.4200       316
    16.4400       254
    16.4600       288
    16.4800       292
    16.5000       276
    16.5200       288
    16.5400       294
    16.5600       322
    16.5800       286
    16.6000       272
    16.6200       286
    16.6400       286
    16.6600       278
    16.6800       282
    16.7000       286
    16.7200       270
    16.7400       310
    16.7600       274
    16.7800       332
    16.8000       256
    16.8200       292
    16.8400       256
    16.8600       258
    16.8800       294
    16.9000       300
    16.9200       310
    16.9400       288
    16.9600       300
    16.9800       296
    17.0000       306
    17.0200       274
    17.0400       328
    17.0600       310
    17.0800       318
    17.1000       326
    17.1200       300
    17.1400       284
    17.1600       264
    17.1800       294
    17.2000       310
    17.2200       324
    17.2400       290
    17.2600       288
    17.2800       308
    17.3000       312
    17.3200       336
    17.3400       282
    17.3600       296
    17.3800       340
    17.4000       304
    17.4200       268
    17.4400       322
    17.4600       296
    17.4800       288
    17.5000       350
    17.5200       324
    17.5400       292
    17.5600       292
    17.5800       336
    17.6000       318
    17.6200       292
    17.6400       314
    17.6600       336
    17.6800       294
    17.7000       324
    17.7200       288
    17.7400       336
    17.7600       328
    17.7800       328
    17.8000       296
    17.8200       348
    17.8400       344
    17.8600       326
    17.8800       336
    17.9000       338
    17.9200       320
    17.9400       316
    17.9600       314
    17.9800       360
    18.0000       324
    18.0200       332
    18.0400       358
    18.0600       336
    18.0800       310
    18.1000       310
    18.1200       310
    18.1400       340
    18.1600       322
    18.1800       328
    18.2000       306
    18.2200       312
    18.2400       316
    18.2600       352
    18.2800       354
    18.3000       336
    18.3200       344
    18.3400       346
    18.3600       356
    18.3800       368
    18.4000       340
    18.4200       308
    18.4400       318
    18.4600       338
    18.4800       332
    18.5000       340
    18.5200       350
    18.5400       354
    18.5600       376
    18.5800       322
    18.6000       356
    18.6200       350
    18.6400       376
    18.6600       354
    18.6800       350
    18.7000       334
    18.7200       350
    18.7400       362
    18.7600       330
    18.7800       418
    18.8000       342
    18.8200       346
    18.8400       368
    18.8600       364
    18.8800       380
    18.9000       382
    18.9200       378
    18.9400       384
    18.9600       348
    18.9800       378
    19.0000       352
    19.0200       358
    19.0400       374
    19.0600       364
    19.0800       344
    19.1000       388
    19.1200       358
    19.1400       356
    19.1600       406
    19.1800       388
    19.2000       354
    19.2200       388
    19.2400       364
    19.2600       358
    19.2800       370
    19.3000       362
    19.3200       398
    19.3400       372
    19.3600       416
    19.3800       418
    19.4000       368
    19.4200       358
    19.4400       402
    19.4600       378
    19.4800       410
    19.5000       356
    19.5200       402
    19.5400       388
    19.5600       422
    19.5800       402
    19.6000       420
    19.6200       414
    19.6400       404
    19.6600       404
    19.6800       386
    19.7000       392
    19.7200       402
    19.7400       396
    19.7600       434
    19.7800       452
    19.8000       412
    19.8200       424
    19.8400       380
    19.8600       412
    19.8800       406
    19.9000       416
    19.9200       430
    19.9400       402
    19.9600       392
    19.9800       440
    20.0000       450
    20.0200       442
    20.0400       426
    20.0600       452
    20.0800       454
    20.1000       414
    20.1200       432
    20.1400       438
    20.1600       448
    20.1800       438
    20.2000       458
    20.2200       484
    20.2400       458
    20.2600       472
    20.2800       418
    20.3000       458
    20.3200       442
    20.3400       452
    20.3600       426
    20.3800       434
    20.4000       492
    20.4200       478
    20.4400       476
    20.4600       424
    20.4800       428
    20.5000       488
    20.5200       478
    20.5400       496
    20.5600       474
    20.5800       432
    20.6000       468
    20.6200       506
    20.6400       470
    20.6600       434
    20.6800       478
    20.7000       488
    20.7200       506
    20.7400       462
    20.7600       500
    20.7800       506
    20.8000       510
    20.8200       438
    20.8400       420
    20.8600       508
    20.8800       488
    20.9000       488
    20.9200       530
    20.9400       494
    20.9600       510
    20.9800       470
    21.0000       514
    21.0200       568
    21.0400       528
    21.0600       540
    21.0800       516
    21.1000       506
    21.1200       558
    21.1400       520
    21.1600       486
    21.1800       506
    21.2000       540
    21.2200       510
    21.2400       510
    21.2600       556
    21.2800       592
    21.3000       520
    21.3200       546
    21.3400       528
    21.3600       556
    21.3800       552
    21.4000       542
    21.4200       558
    21.4400       582
    21.4600       584
    21.4800       548
    21.5000       608
    21.5200       554
    21.5400       592
    21.5600       600
    21.5800       580
    21.6000       562
    21.6200       538
    21.6400       590
    21.6600       614
    21.6800       620
    21.7000       598
    21.7200       600
    21.7400       546
    21.7600       590
    21.7800       572
    21.8000       570
    21.8200       578
    21.8400       602
    21.8600       638
    21.8800       596
    21.9000       590
    21.9200       606
    21.9400       638
    21.9600       634
    21.9800       618
    22.0000       596
    22.0200       580
    22.0400       642
    22.0600       638
    22.0800       658
    22.1000       626
    22.1200       668
    22.1400       564
    22.1600       650
    22.1800       630
    22.2000       614
    22.2200       688
    22.2400       652
    22.2600       682
    22.2800       684
    22.3000       670
    22.3200       660
    22.3400       652
    22.3600       624
    22.3800       658
    22.4000       650
    22.4200       724
    22.4400       694
    22.4600       718
    22.4800       682
    22.5000       702
    22.5200       726
    22.5400       720
    22.5600       652
    22.5800       722
    22.6000       714
    22.6200       706
    22.6400       718
    22.6600       756
    22.6800       744
    22.7000       692
    22.7200       754
    22.7400       750
    22.7600       778
    22.7800       756
    22.8000       712
    22.8200       706
    22.8400       760
    22.8600       786
    22.8800       766
    22.9000       798
    22.9200       732
    22.9400       700
    22.9600       758
    22.9800       736
    23.0000       802
    23.0200       740
    23.0400       744
    23.0600       768
    23.0800       794
    23.1000       798
    23.1200       788
    23.1400       756
    23.1600       796
    23.1800       770
    23.2000       814
    23.2200       874
    23.2400       810
    23.2600       874
    23.2800       766
    23.3000       866
    23.3200       822
    23.3400       850
    23.3600       776
    23.3800       818
    23.4000       824
    23.4200       792
    23.4400       806
    23.4600       808
    23.4800       816
    23.5000       838
    23.5200       822
    23.5400       830
    23.5600       908
    23.5800       772
    23.6000       840
    23.6200       840
    23.6400       846
    23.6600       824
    23.6800       894
    23.7000       906
    23.7200       890
    23.7400       918
    23.7600       934
    23.7800       864
    23.8000       910
    23.8200       872
    23.8400       864
    23.8600       892
    23.8800       952
    23.9000       944
    23.9200       904
    23.9400       954
    23.9600       954
    23.9800       924
    24.0000       866
    24.0200       912
    24.0400       984
    24.0600       940
    24.0800       952
    24.1000       894
    24.1200       904
    24.1400       902
    24.1600       890
    24.1800       954
    24.2000       964
    24.2200       984
    24.2400       962
    24.2600       990
    24.2800       900
    24.3000       984
    24.3200       932
    24.3400       972
    24.3600       978
    24.3800       972
    24.4000       962
    24.4200       956
    24.4400       890
    24.4600       982
    24.4800       982
    24.5000       914
    24.5200       892
    24.5400       898
    24.5600       950
    24.5800       966
    24.6000       916
    24.6200       990
    24.6400       954
    24.6600       976
    24.6800      1002
    24.7000       928
    24.7200       892
    24.7400      1006
    24.7600       958
    24.7800       946
    24.8000       968
    24.8200      1036
    24.8400       992
    24.8600       912
    24.8800       968
    24.9000       960
    24.9200       978
    24.9400       990
    24.9600       888
    24.9800       964
    25.0000      1006
    25.0200       922
    25.0400       904
    25.0600       964
    25.0800       974
    25.1000       844
    25.1200       974
    25.1400       998
    25.1600       902
    25.1800       946
    25.2000       984
    25.2200       958
    25.2400       930
    25.2600       966
    25.2800       976
    25.3000       948
    25.3200       930
    25.3400       944
    25.3600       926
    25.3800       862
    25.4000       946
    25.4200       938
    25.4400       940
    25.4600       986
    25.4800       882
    25.5000       920
    25.5200       864
    25.5400       938
    25.5600       928
    25.5800       936
    25.6000       934
    25.6200       868
    25.6400       918
    25.6600       846
    25.6800       852
    25.7000       922
    25.7200       878
    25.7400       904
    25.7600       854
    25.7800       830
    25.8000       924
    25.8200       808
    25.8400       920
    25.8600       786
    25.8800       796
    25.9000       852
    25.9200       882
    25.9400       838
    25.9600       860
    25.9800       862
    26.0000       872
    26.0200       790
    26.0400       788
    26.0600       828
    26.0800       846
    26.1000       780
    26.1200       818
    26.1400       776
    26.1600       738
    26.1800       798
    26.2000       734
    26.2200       752
    26.2400       774
    26.2600       744
    26.2800       754
    26.3000       726
    26.3200       782
    26.3400       708
    26.3600       738
    26.3800       706
    26.4000       710
    26.4200       748
    26.4400       658
    26.4600       680
    26.4800       758
    26.5000       722
    26.5200       684
    26.5400       676
    26.5600       732
    26.5800       694
    26.6000       680
    26.6200       670
    26.6400       614
    26.6600       604
    26.6800       662
    26.7000       648
    26.7200       676
    26.7400       624
    26.7600       652
    26.7800       668
    26.8000       592
    26.8200       630
    26.8400       664
    26.8600       618
    26.8800       590
    26.9000       574
    26.9200       584
    26.9400       610
    26.9600       606
    26.9800       622
    27.0000       526
    27.0200       546
    27.0400       526
    27.0600       532
    27.0800       548
    27.1000       564
    27.1200       508
    27.1400       548
    27.1600       518
    27.1800       556
    27.2000       548
    27.2200       502
    27.2400       554
    27.2600       510
    27.2800       542
    27.3000       482
    27.3200       464
    27.3400       492
    27.3600       444
    27.3800       458
    27.4000       502
    27.4200       470
    27.4400       452
    27.4600       446
    27.4800       464
    27.5000       412
    27.5200       470
    27.5400       474
    27.5600       456
    27.5800       482
    27.6000       448
    27.6200       430
    27.6400       446
    27.6600       440
    27.6800       430
    27.7000       440
    27.7200       392
    27.7400       410
    27.7600       434
    27.7800       432
    27.8000       380
    27.8200       354
    27.8400       406
    27.8600       398
    27.8800       408
    27.9000       402
    27.9200       380
    27.9400       380
    27.9600       406
    27.9800       440
    28.0000       392
    28.0200       382
    28.0400       358
    28.0600       386
    28.0800       372
    28.1000       370
    28.1200       402
    28.1400       366
    28.1600       378
    28.1800       364
    28.2000       368
    28.2200       332
    28.2400       324
    28.2600       346
    28.2800       338
    28.3000       336
    28.3200       346
    28.3400       366
    28.3600       294
    28.3800       320
    28.4000       334
    28.4200       344
    28.4400       322
    28.4600       294
    28.4800       320
    28.5000       304
    28.5200       304
    28.5400       294
    28.5600       286
    28.5800       292
    28.6000       304
    28.6200       318
    28.6400       292
    28.6600       312
    28.6800       286
    28.7000       318
    28.7200       284
    28.7400       268
    28.7600       314
    28.7800       280
    28.8000       284
    28.8200       282
    28.8400       322
    28.8600       266
    28.8800       302
    28.9000       234
    28.9200       254
    28.9400       300
    28.9600       252
    28.9800       274
    29.0000       280
    29.0200       276
    29.0400       288
    29.0600       240
    29.0800       252
    29.1000       294
    29.1200       242
    29.1400       260
    29.1600       272
    29.1800       260
    29.2000       232
    29.2200       244
    29.2400       244
    29.2600       216
    29.2800       236
    29.3000       236
    29.3200       250
    29.3400       236
    29.3600       246
    29.3800       214
    29.4000       212
    29.4200       260
    29.4400       262
    29.4600       220
    29.4800       234
    29.5000       236
    29.5200       214
    29.5400       216
    29.5600       206
    29.5800       240
    29.6000       224
    29.6200       228
    29.6400       230
    29.6600       246
    29.6800       218
    29.7000       222
    29.7200       216
    29.7400       212
    29.7600       204
    29.7800       204
    29.8000       200
    29.8200       192
    29.8400       234
    29.8600       200
    29.8800       194
    29.9000       190
    29.9200       230
    29.9400       208
    29.9600       188
    29.9800       190
    30.0000       194
    30.0200       200
    30.0400       198
    30.0600       208
    30.0800       180
    30.1000       198
    30.1200       202
    30.1400       196
    30.1600       180
    30.1800       186
    30.2000       194
    30.2200       184
    30.2400       204
    30.2600       190
    30.2800       194
    30.3000       196
    30.3200       206
    30.3400       200
    30.3600       192
    30.3800       194
    30.4000       178
    30.4200       156
    30.4400       166
    30.4600       194
    30.4800       168
    30.5000       168
    30.5200       172
    30.5400       182
    30.5600       164
    30.5800       178
    30.6000       192
    30.6200       172
    30.6400       184
    30.6600       196
    30.6800       186
    30.7000       144
    30.7200       158
    30.7400       170
    30.7600       172
    30.7800       196
    30.8000       178
    30.8200       174
    30.8400       172
    30.8600       180
    30.8800       162
    30.9000       156
    30.9200       174
    30.9400       148
    30.9600       196
    30.9800       176
    31.0000       154
    31.0200       154
    31.0400       184
    31.0600       168
    31.0800       180
    31.1000       180
    31.1200       156
    31.1400       158
    31.1600       178
    31.1800       146
    31.2000       162
    31.2200       158
    31.2400       138
    31.2600       154
    31.2800       162
    31.3000       152
    31.3200       152
    31.3400       152
    31.3600       154
    31.3800       162
    31.4000       152
    31.4200       148
    31.4400       132
    31.4600       156
    31.4800       144
    31.5000       158
    31.5200       160
    31.5400       168
    31.5600       156
    31.5800       164
    31.6000       130
    31.6200       146
    31.6400       132
    31.6600       166
    31.6800       136
    31.7000       152
    31.7200       144
    31.7400       142
    31.7600       144
    31.7800       138
    31.8000       156
    31.8200       150
    31.8400       142
    31.8600       146
    31.8800       142
    31.9000       154
    31.9200       148
    31.9400       134
    31.9600       152
    31.9800       140
    32.0000       162
    32.0200       166
    32.0400       140
    32.0600       152
    32.0800       154
    32.1000       152
    32.1200       122
    32.1400       132
    32.1600       154
    32.1800       158
    32.2000       128
    32.2200       138
    32.2400       144
    32.2600       146
    32.2800       156
    32.3000       130
    32.3200       136
    32.3400       144
    32.3600       148
    32.3800       144
    32.4000       158
    32.4200       160
    32.4400       144
    32.4600       148
    32.4800       150
    32.5000       144
    32.5200       152
    32.5400       172
    32.5600       128
    32.5800       152
    32.6000       142
    32.6200       160
    32.6400       142
    32.6600       156
    32.6800       128
    32.7000       128
    32.7200       142
    32.7400       158
    32.7600       132
    32.7800       122
    32.8000       106
    32.8200       114
    32.8400       114
    32.8600       146
    32.8800       150
    32.9000       120
    32.9200       134
    32.9400       142
    32.9600       144
    32.9800       146
    33.0000       140
    33.0200       134
    33.0400       118
    33.0600       124
    33.0800       120
    33.1000       124
    33.1200       112
    33.1400       122
    33.1600       132
    33.1800       138
    33.2000       134
    33.2200       126
    33.2400       130
    33.2600       122
    33.2800       108
    33.3000       122
    33.3200       116
    33.3400       132
    33.3600       140
    33.3800       124
    33.4000       146
    33.4200       122
    33.4400       122
    33.4600       144
    33.4800       130
    33.5000       120
    33.5200       126
    33.5400       120
    33.5600       112
    33.5800       142
    33.6000       110
    33.6200       112
    33.6400       118
    33.6600       118
    33.6800       122
    33.7000       106
    33.7200       132
    33.7400       126
    33.7600       124
    33.7800       134
    33.8000       132
    33.8200       124
    33.8400       142
    33.8600       150
    33.8800       138
    33.9000       140
    33.9200       102
    33.9400       126
    33.9600       122
    33.9800       120
    34.0000       108
    34.0200       126
    34.0400       120
    34.0600       112
    34.0800       130
    34.1000       114
    34.1200       130
    34.1400       130
    34.1600       128
    34.1800       120
    34.2000       104
    34.2200       134
    34.2400       110
    34.2600       120
    34.2800       114
    34.3000       126
    34.3200       108
    34.3400       116
    34.3600       128
    34.3800       132
    34.4000       122
    34.4200       126
    34.4400       126
    34.4600       124
    34.4800       128
    34.5000       100
    34.5200       120
    34.5400       112
    34.5600       112
    34.5800       110
    34.6000       130
    34.6200       144
    34.6400       120
    34.6600       118
    34.6800       112
    34.7000       114
    34.7200       130
    34.7400       118
    34.7600       122
    34.7800       112
    34.8000       116
    34.8200       106
    34.8400       112
    34.8600       116
    34.8800       114
    34.9000       108
    34.9200       118
    34.9400       112
    34.9600       126
    34.9800       110
    35.0000       108
    35.0200       118
    35.0400       122
    35.0600       138
    35.0800       116
    35.1000       112
    35.1200       122
    35.1400       134
    35.1600       130
    35.1800       126
    35.2000       114
    35.2200       100
    35.2400       126
    35.2600       124
    35.2800       108
    35.3000       100
    35.3200       128
    35.3400       128
    35.3600       114
    35.3800       140
    35.4000       140
    35.4200       122
    35.4400       116
    35.4600       128
    35.4800       128
    35.5000       126
    35.5200       130
    35.5400       142
    35.5600       110
    35.5800       100
    35.6000       116
    35.6200       118
    35.6400       144
    35.6600       120
    35.6800       112
    35.7000       114
    35.7200       128
    35.7400       120
    35.7600       102
    35.7800       148
    35.8000       108
    35.8200       106
    35.8400       142
    35.8600       128
    35.8800       118
    35.9000       130
    35.9200       124
    35.9400       142
    35.9600       122
    35.9800       114
    36.0000       130
    36.0200       124
    36.0400       124
    36.0600       128
    36.0800       130
    36.1000       134
    36.1200       112
    36.1400       144
    36.1600       116
    36.1800       116
    36.2000       124
    36.2200       122
    36.2400       118
    36.2600       134
    36.2800       122
    36.3000       140
    36.3200       120
    36.3400       124
    36.3600       136
    36.3800       148
    36.4000       148
    36.4200       138
    36.4400       118
    36.4600        94
    36.4800       136
    36.5000       124
    36.5200       134
    36.5400       118
    36.5600       118
    36.5800       124
    36.6000       114
    36.6200       126
    36.6400       102
    36.6600       138
    36.6800       126
    36.7000       138
    36.7200       122
    36.7400       134
    36.7600       114
    36.7800       128
    36.8000       138
    36.8200       154
    36.8400       116
    36.8600       156
    36.8800       134
    36.9000       134
    36.9200       158
    36.9400       132
    36.9600       134
    36.9800       150
    37.0000       140
    37.0200       142
    37.0400       164
    37.0600       172
    37.0800       148
    37.1000       150
    37.1200       146
    37.1400       158
    37.1600       166
    37.1800       154
    37.2000       190
    37.2200       196
    37.2400       170
    37.2600       186
    37.2800       228
    37.3000       248
    37.3200       260
    37.3400       262
    37.3600       278
    37.3800       302
    37.4000       366
    37.4200       394
    37.4400       428
    37.4600       506
    37.4800       540
    37.5000       714
    37.5200       810
    37.5400       940
    37.5600      1248
    37.5800      1550
    37.6000      1896
    37.6200      2430
    37.6400      2824
    37.6600      3410
    37.6800      3776
    37.7000      4274
    37.7200      4524
    37.7400      4380
    37.7600      4400
    37.7800      3950
    37.8000      3586
    37.8200      3114
    37.8400      2684
    37.8600      2274
    37.8800      1882
    37.9000      1468
    37.9200      1194
    37.9400       934
    37.9600       726
    37.9800       600
    38.0000       480
    38.0200       418
    38.0400       412
    38.0600       318
    38.0800       286
    38.1000       246
    38.1200       244
    38.1400       210
    38.1600       208
    38.1800       208
    38.2000       202
    38.2200       202
    38.2400       134
    38.2600       176
    38.2800       142
    38.3000       148
    38.3200       174
    38.3400       168
    38.3600       144
    38.3800       164
    38.4000       138
    38.4200       120
    38.4400       134
    38.4600       138
    38.4800       128
    38.5000       168
    38.5200       142
    38.5400       150
    38.5600       152
    38.5800       142
    38.6000       128
    38.6200       136
    38.6400       140
    38.6600       148
    38.6800       142
    38.7000       154
    38.7200       136
    38.7400       118
    38.7600       150
    38.7800       136
    38.8000       136
    38.8200       142
    38.8400       140
    38.8600       122
    38.8800       136
    38.9000       132
    38.9200       124
    38.9400       142
    38.9600       110
    38.9800       132
    39.0000       126
    39.0200       138
    39.0400       150
    39.0600       152
    39.0800       132
    39.1000       152
    39.1200       140
    39.1400       136
    39.1600       150
    39.1800       136
    39.2000       166
    39.2200       134
    39.2400       128
    39.2600       140
    39.2800       138
    39.3000       158
    39.3200       158
    39.3400       140
    39.3600       130
    39.3800       148
    39.4000       142
    39.4200       144
    39.4400       150
    39.4600       170
    39.4800       140
    39.5000       142
    39.5200       166
    39.5400       136
    39.5600       146
    39.5800       156
    39.6000       146
    39.6200       168
    39.6400       144
    39.6600       128
    39.6800       158
    39.7000       140
    39.7200       156
    39.7400       148
    39.7600       144
    39.7800       158
    39.8000       144
    39.8200       154
    39.8400       152
    39.8600       174
    39.8800       148
    39.9000       162
    39.9200       150
    39.9400       150
    39.9600       152
    39.9800       152
    40.0000       150
    40.0200       170
    40.0400       128
    40.0600       170
    40.0800       154
    40.1000       166
    40.1200       168
    40.1400       136
    40.1600       174
    40.1800       144
    40.2000       142
    40.2200       158
    40.2400       150
    40.2600       162
    40.2800       186
    40.3000       150
    40.3200       168
    40.3400       172
    40.3600       174
    40.3800       196
    40.4000       178
    40.4200       164
    40.4400       160
    40.4600       180
    40.4800       162
    40.5000       162
    40.5200       166
    40.5400       158
    40.5600       186
    40.5800       168
    40.6000       172
    40.6200       170
    40.6400       164
    40.6600       176
    40.6800       180
    40.7000       188
    40.7200       160
    40.7400       178
    40.7600       188
    40.7800       162
    40.8000       218
    40.8200       192
    40.8400       168
    40.8600       186
    40.8800       186
    40.9000       188
    40.9200       176
    40.9400       188
    40.9600       188
    40.9800       172
    41.0000       162
    41.0200       176
    41.0400       194
    41.0600       202
    41.0800       202
    41.1000       190
    41.1200       190
    41.1400       206
    41.1600       206
    41.1800       202
    41.2000       220
    41.2200       182
    41.2400       188
    41.2600       164
    41.2800       204
    41.3000       198
    41.3200       196
    41.3400       180
    41.3600       212
    41.3800       222
    41.4000       218
    41.4200       200
    41.4400       178
    41.4600       220
    41.4800       218
    41.5000       208
    41.5200       218
    41.5400       198
    41.5600       234
    41.5800       208
    41.6000       208
    41.6200       220
    41.6400       218
    41.6600       236
    41.6800       248
    41.7000       234
    41.7200       216
    41.7400       232
    41.7600       228
    41.7800       218
    41.8000       238
    41.8200       228
    41.8400       216
    41.8600       200
    41.8800       216
    41.9000       220
    41.9200       226
    41.9400       218
    41.9600       214
    41.9800       240
    42.0000       228
    42.0200       224
    42.0400       238
    42.0600       244
    42.0800       210
    42.1000       232
    42.1200       262
    42.1400       234
    42.1600       224
    42.1800       254
    42.2000       244
    42.2200       232
    42.2400       228
    42.2600       232
    42.2800       244
    42.3000       250
    42.3200       230
    42.3400       240
    42.3600       290
    42.3800       238
    42.4000       212
    42.4200       222
    42.4400       232
    42.4600       264
    42.4800       244
    42.5000       242
    42.5200       258
    42.5400       244
    42.5600       248
    42.5800       282
    42.6000       256
    42.6200       250
    42.6400       254
    42.6600       250
    42.6800       254
    42.7000       290
    42.7200       272
    42.7400       264
    42.7600       254
    42.7800       282
    42.8000       268
    42.8200       284
    42.8400       266
    42.8600       260
    42.8800       288
    42.9000       294
    42.9200       288
    42.9400       252
    42.9600       250
    42.9800       262
    43.0000       290
    43.0200       258
    43.0400       250
    43.0600       286
    43.0800       268
    43.1000       278
    43.1200       278
    43.1400       282
    43.1600       280
    43.1800       280
    43.2000       302
    43.2200       276
    43.2400       288
    43.2600       244
    43.2800       268
    43.3000       274
    43.3200       284
    43.3400       272
    43.3600       240
    43.3800       288
    43.4000       308
    43.4200       254
    43.4400       272
    43.4600       290
    43.4800       294
    43.5000       308
    43.5200       322
    43.5400       286
    43.5600       316
    43.5800       312
    43.6000       330
    43.6200       324
    43.6400       356
    43.6600       380
    43.6800       408
    43.7000       430
    43.7200       466
    43.7400       498
    43.7600       548
    43.7800       624
    43.8000       722
    43.8200       888
    43.8400      1036
    43.8600      1204
    43.8800      1448
    43.9000      1764
    43.9200      1934
    43.9400      2186
    43.9600      2224
    43.9800      2334
    44.0000      2240
    44.0200      2068
    44.0400      1920
    44.0600      1814
    44.0800      1694
    44.1000      1414
    44.1200      1258
    44.1400      1036
    44.1600       844
    44.1800       802
    44.2000       692
    44.2200       542
    44.2400       474
    44.2600       414
    44.2800       384
    44.3000       340
    44.3200       342
    44.3400       316
    44.3600       304
    44.3800       306
    44.4000       312
    44.4200       278
    44.4400       264
    44.4600       266
    44.4800       280
    44.5000       252
    44.5200       262
    44.5400       248
    44.5600       230
    44.5800       266
    44.6000       250
    44.6200       284
    44.6400       252
    44.6600       264
    44.6800       250
    44.7000       262
    44.7200       236
    44.7400       248
    44.7600       240
    44.7800       216
    44.8000       226
    44.8200       262
    44.8400       244
    44.8600       238
    44.8800       234
    44.9000       224
    44.9200       220
    44.9400       224
    44.9600       224
    44.9800       240
    45.0000       234
    45.0200       238
    45.0400       240
    45.0600       216
    45.0800       244
    45.1000       202
    45.1200       218
    45.1400       230
    45.1600       220
    45.1800       210
    45.2000       210
    45.2200       216
    45.2400       212
    45.2600       244
    45.2800       218
    45.3000       236
    45.3200       212
    45.3400       234
    45.3600       198
    45.3800       218
    45.4000       198
    45.4200       212
    45.4400       204
    45.4600       210
    45.4800       206
    45.5000       220
    45.5200       198
    45.5400       200
    45.5600       214
    45.5800       194
    45.6000       210
    45.6200       210
    45.6400       204
    45.6600       196
    45.6800       228
    45.7000       206
    45.7200       176
    45.7400       192
    45.7600       206
    45.7800       226
    45.8000       176
    45.8200       204
    45.8400       204
    45.8600       220
    45.8800       166
    45.9000       206
    45.9200       178
    45.9400       200
    45.9600       196
    45.9800       210
    46.0000       190
    46.0200       176
    46.0400       198
    46.0600       190
    46.0800       196
    46.1000       176
    46.1200       204
    46.1400       184
    46.1600       202
    46.1800       198
    46.2000       188
    46.2200       200
    46.2400       204
    46.2600       178
    46.2800       188
    46.3000       202
    46.3200       178
    46.3400       176
    46.3600       196
    46.3800       172
    46.4000       188
    46.4200       184
    46.4400       196
    46.4600       178
    46.4800       182
    46.5000       176
    46.5200       218
    46.5400       168
    46.5600       170
    46.5800       188
    46.6000       216
    46.6200       180
    46.6400       170
    46.6600       182
    46.6800       170
    46.7000       198
    46.7200       178
    46.7400       208
    46.7600       210
    46.7800       180
    46.8000       170
    46.8200       150
    46.8400       202
    46.8600       166
    46.8800       170
    46.9000       172
    46.9200       170
    46.9400       172
    46.9600       160
    46.9800       170
    47.0000       184
    47.0200       176
    47.0400       170
    47.0600       186
    47.0800       188
    47.1000       168
    47.1200       180
    47.1400       148
    47.1600       154
    47.1800       180
    47.2000       144
    47.2200       160
    47.2400       168
    47.2600       156
    47.2800       148
    47.3000       178
    47.3200       182
    47.3400       184
    47.3600       168
    47.3800       172
    47.4000       166
    47.4200       160
    47.4400       202
    47.4600       164
    47.4800       166
    47.5000       172
    47.5200       146
    47.5400       192
    47.5600       198
    47.5800       160
    47.6000       170
    47.6200       168
    47.6400       148
    47.6600       158
    47.6800       148
    47.7000       146
    47.7200       178
    47.7400       174
    47.7600       154
    47.7800       142
    47.8000       140
    47.8200       188
    47.8400       168
    47.8600       176
    47.8800       158
    47.9000       160
    47.9200       172
    47.9400       142
    47.9600       126
    47.9800       148
    48.0000       130
    48.0200       148
    48.0400       152
    48.0600       154
    48.0800       152
    48.1000       156
    48.1200       148
    48.1400       144
    48.1600       150
    48.1800       182
    48.2000       166
    48.2200       158
    48.2400       146
    48.2600       136
    48.2800       162
    48.3000       194
    48.3200       164
    48.3400       180
    48.3600       148
    48.3800       138
    48.4000       158
    48.4200       154
    48.4400       146
    48.4600       168
    48.4800       142
    48.5000       140
    48.5200       150
    48.5400       150
    48.5600       140
    48.5800       154
    48.6000       166
    48.6200       148
    48.6400       148
    48.6600       160
    48.6800       140
    48.7000       144
    48.7200       150
    48.7400       158
    48.7600       156
    48.7800       138
    48.8000       134
    48.8200       172
    48.8400       156
    48.8600       154
    48.8800       158
    48.9000       134
    48.9200       146
    48.9400       168
    48.9600       158
    48.9800       146
    49.0000       144
    49.0200       130
    49.0400       142
    49.0600       168
    49.0800       156
    49.1000       136
    49.1200       144
    49.1400       150
    49.1600       128
    49.1800       150
    49.2000       164
    49.2200       134
    49.2400       150
    49.2600       172
    49.2800       144
    49.3000       140
    49.3200       162
    49.3400       162
    49.3600       144
    49.3800       158
    49.4000       160
    49.4200       154
    49.4400       138
    49.4600       146
    49.4800       160
    49.5000       140
    49.5200       140
    49.5400       158
    49.5600       158
    49.5800       138
    49.6000       150
    49.6200       134
    49.6400       158
    49.6600       152
    49.6800       136
    49.7000       156
    49.7200       164
    49.7400       154
    49.7600       128
    49.7800       132
    49.8000       150
    49.8200       148
    49.8400       148
    49.8600       150
    49.8800       136
    49.9000       128
    49.9200       152
    49.9400       156
    49.9600       138
    49.9800       132
    50.0000       152
    50.0200       150
    50.0400       124
    50.0600       140
    50.0800       132
    50.1000       116
    50.1200       150
    50.1400       132
    50.1600       124
    50.1800       132
    50.2000       136
    50.2200       142
    50.2400       122
    50.2600       146
    50.2800       154
    50.3000       118
    50.3200       142
    50.3400       152
    50.3600       138
    50.3800       146
    50.4000       158
    50.4200       144
    50.4400       120
    50.4600       150
    50.4800       138
    50.5000       142
    50.5200       144
    50.5400       132
    50.5600       112
    50.5800       142
    50.6000       150
    50.6200       130
    50.6400       122
    50.6600       136
    50.6800       148
    50.7000       136
    50.7200       142
    50.7400       112
    50.7600       136
    50.7800       142
    50.8000       172
    50.8200       148
    50.8400       136
    50.8600       116
    50.8800       130
    50.9000       132
    50.9200       128
    50.9400       166
    50.9600       126
    50.9800       144
    51.0000       132
    51.0200       128
    51.0400       138
    51.0600       148
    51.0800       136
    51.1000       152
    51.1200       132
    51.1400       132
    51.1600       126
    51.1800       148
    51.2000       112
    51.2200       122
    51.2400       128
    51.2600       124
    51.2800       146
    51.3000       134
    51.3200       126
    51.3400       128
    51.3600       134
    51.3800       140
    51.4000       132
    51.4200       138
    51.4400       142
    51.4600       124
    51.4800       136
    51.5000       142
    51.5200       134
    51.5400       144
    51.5600       162
    51.5800       116
    51.6000       140
    51.6200       142
    51.6400       122
    51.6600       136
    51.6800       106
    51.7000       142
    51.7200       132
    51.7400       144
    51.7600       122
    51.7800       148
    51.8000       114
    51.8200       126
    51.8400       122
    51.8600       130
    51.8800       126
    51.9000       140
    51.9200       130
    51.9400       136
    51.9600       136
    51.9800       130
    52.0000       138
    52.0200       128
    52.0400       124
    52.0600       128
    52.0800       140
    52.1000       112
    52.1200       114
    52.1400       134
    52.1600       124
    52.1800       150
    52.2000       116
    52.2200       132
    52.2400       106
    52.2600       132
    52.2800       120
    52.3000       120
    52.3200       126
    52.3400       114
    52.3600       114
    52.3800       148
    52.4000       118
    52.4200       138
    52.4400       126
    52.4600       120
    52.4800       122
    52.5000       110
    52.5200       134
    52.5400       132
    52.5600       124
    52.5800       118
    52.6000       146
    52.6200       116
    52.6400       112
    52.6600       120
    52.6800       128
    52.7000       124
    52.7200       116
    52.7400       118
    52.7600       124
    52.7800       110
    52.8000       112
    52.8200       102
    52.8400       146
    52.8600       132
    52.8800       136
    52.9000       124
    52.9200       122
    52.9400       102
    52.9600       122
    52.9800       134
    53.0000       132
    53.0200       116
    53.0400       114
    53.0600       122
    53.0800       158
    53.1000       122
    53.1200       112
    53.1400       124
    53.1600       112
    53.1800       108
    53.2000       138
    53.2200       128
    53.2400       116
    53.2600       112
    53.2800       126
    53.3000       100
    53.3200       122
    53.3400       106
    53.3600       126
    53.3800       136
    53.4000       122
    53.4200        96
    53.4400       108
    53.4600       130
    53.4800       110
    53.5000       116
    53.5200       116
    53.5400       122
    53.5600       116
    53.5800       116
    53.6000       112
    53.6200       100
    53.6400       136
    53.6600       128
    53.6800       128
    53.7000       108
    53.7200       120
    53.7400       134
    53.7600       114
    53.7800       116
    53.8000       132
    53.8200       118
    53.8400       120
    53.8600       112
    53.8800       124
    53.9000        86
    53.9200       122
    53.9400       108
    53.9600       124
    53.9800       116
    54.0000       100
    54.0200       114
    54.0400       114
    54.0600       112
    54.0800       108
    54.1000       136
    54.1200       100
    54.1400       114
    54.1600       114
    54.1800       108
    54.2000       126
    54.2200        94
    54.2400        98
    54.2600       116
    54.2800       104
    54.3000       130
    54.3200       108
    54.3400       128
    54.3600       120
    54.3800        96
    54.4000        96
    54.4200       114
    54.4400       112
    54.4600       120
    54.4800       120
    54.5000       104
    54.5200       108
    54.5400       124
    54.5600        98
    54.5800       128
    54.6000        98
    54.6200       102
    54.6400       120
    54.6600       110
    54.6800       116
    54.7000       100
    54.7200       116
    54.7400       116
    54.7600       112
    54.7800       114
    54.8000       102
    54.8200        98
    54.8400        92
    54.8600       104
    54.8800        96
    54.9000        92
    54.9200       118
    54.9400       112
    54.9600       100
    54.9800       100
    55.0000       130
    55.0200       124
    55.0400       140
    55.0600       112
    55.0800        96
    55.1000       112
    55.1200       126
    55.1400       110
    55.1600       104
    55.1800       124
    55.2000       112
    55.2200        96
    55.2400       116
    55.2600       110
    55.2800        88
    55.3000       106
    55.3200       108
    55.3400       114
    55.3600       102
    55.3800       102
    55.4000        88
    55.4200       118
    55.4400       114
    55.4600       100
    55.4800       110
    55.5000       120
    55.5200        86
    55.5400        86
    55.5600        96
    55.5800       106
    55.6000        88
    55.6200       118
    55.6400       116
    55.6600       112
    55.6800        90
    55.7000       120
    55.7200        94
    55.7400       100
    55.7600       106
    55.7800       100
    55.8000       100
    55.8200       112
    55.8400        94
    55.8600       112
    55.8800        76
    55.9000        90
    55.9200        94
    55.9400       118
    55.9600        84
    55.9800        98
    56.0000        98
    56.0200       102
    56.0400        86
    56.0600       100
    56.0800       100
    56.1000       100
    56.1200        94
    56.1400        94
    56.1600       102
    56.1800       106
    56.2000       104
    56.2200        98
    56.2400        74
    56.2600        98
    56.2800       106
    56.3000        92
    56.3200        98
    56.3400       116
    56.3600        98
    56.3800        88
    56.4000        92
    56.4200       102
    56.4400        84
    56.4600        94
    56.4800        88
    56.5000        94
    56.5200        78
    56.5400       106
    56.5600        86
    56.5800        96
    56.6000        90
    56.6200        84
    56.6400        78
    56.6600       106
    56.6800        96
    56.7000        90
    56.7200        72
    56.7400        86
    56.7600        90
    56.7800        90
    56.8000        90
    56.8200        90
    56.8400        92
    56.8600       110
    56.8800        86
    56.9000        88
    56.9200       104
    56.9400       102
    56.9600        92
    56.9800        86
    57.0000        92
    57.0200       102
    57.0400        96
    57.0600        76
    57.0800        96
    57.1000       104
    57.1200        82
    57.1400        70
    57.1600       104
    57.1800        92
    57.2000       114
    57.2200       102
    57.2400       100
    57.2600        96
    57.2800        96
    57.3000        68
    57.3200       100
    57.3400        84
    57.3600        96
    57.3800        98
    57.4000        90
    57.4200        88
    57.4400        84
    57.4600       108
    57.4800        92
    57.5000        76
    57.5200        96
    57.5400        90
    57.5600        82
    57.5800       120
    57.6000        82
    57.6200        76
    57.6400        86
    57.6600        86
    57.6800        86
    57.7000        90
    57.7200        96
    57.7400        80
    57.7600        74
    57.7800        88
    57.8000        90
    57.8200       102
    57.8400        86
    57.8600        88
    57.8800        90
    57.9000        76
    57.9200        86
    57.9400        76
    57.9600        72
    57.9800        90
    58.0000        80
    58.0200        94
    58.0400        78
    58.0600        94
    58.0800        86
    58.1000        88
    58.1200        82
    58.1400        76
    58.1600        86
    58.1800        78
    58.2000        80
    58.2200        88
    58.2400        72
    58.2600        86
    58.2800        92
    58.3000        94
    58.3200        88
    58.3400       100
    58.3600        74
    58.3800        78
    58.4000        84
    58.4200        78
    58.4400        72
    58.4600        78
    58.4800        72
    58.5000        90
    58.5200        96
    58.5400        68
    58.5600        80
    58.5800        76
    58.6000        82
    58.6200        76
    58.6400        90
    58.6600        96
    58.6800        68
    58.7000        68
    58.7200        84
    58.7400        88
    58.7600        76
    58.7800        78
    58.8000        88
    58.8200       100
    58.8400        94
    58.8600        82
    58.8800        94
    58.9000        84
    58.9200        72
    58.9400        82
    58.9600        72
    58.9800        84
    59.0000        86
    59.0200        68
    59.0400        88
    59.0600        72
    59.0800        84
    59.1000       100
    59.1200        82
    59.1400        92
    59.1600        94
    59.1800        82
    59.2000        74
    59.2200        74
    59.2400        68
    59.2600        78
    59.2800        84
    59.3000        82
    59.3200        78
    59.3400        84
    59.3600        88
    59.3800        82
    59.4000        82
    59.4200        70
    59.4400        92
    59.4600        92
    59.4800        90
    59.5000        72
    59.5200        88
    59.5400        92
    59.5600        66
    59.5800        74
    59.6000        88
    59.6200        80
    59.6400        76
    59.6600        78
    59.6800        88
    59.7000        76
    59.7200        80
    59.7400        62
    59.7600        70
    59.7800        74
    59.8000        86
    59.8200        80
    59.8400        60
    59.8600        72
    59.8800        74
    59.9000        80
    59.9200        74
    59.9400        68
    59.9600        82
    59.9800        70
    60.0000        86
    60.0200        86
    60.0400        80
    60.0600        64
    60.0800        82
    60.1000        76
    60.1200        72
    60.1400        68
    60.1600        78
    60.1800        82
    60.2000        60
    60.2200        82
    60.2400        86
    60.2600        72
    60.2800        56
    60.3000        72
    60.3200        74
    60.3400        96
    60.3600        80
    60.3800        78
    60.4000        72
    60.4200        90
    60.4400        68
    60.4600        72
    60.4800        68
    60.5000        56
    60.5200        64
    60.5400        66
    60.5600        88
    60.5800        62
    60.6000        84
    60.6200        76
    60.6400        74
    60.6600        86
    60.6800        72
    60.7000        70
    60.7200        92
    60.7400        86
    60.7600        74
    60.7800        58
    60.8000        68
    60.8200        72
    60.8400        54
    60.8600        80
    60.8800        84
    60.9000        66
    60.9200        88
    60.9400        92
    60.9600        92
    60.9800        88
    61.0000        80
    61.0200        76
    61.0400        84
    61.0600        72
    61.0800        72
    61.1000        60
    61.1200        78
    61.1400        72
    61.1600        82
    61.1800        80
    61.2000        62
    61.2200        88
    61.2400        72
    61.2600        78
    61.2800        82
    61.3000        70
    61.3200        80
    61.3400        88
    61.3600        70
    61.3800        76
    61.4000        74
    61.4200        82
    61.4400        82
    61.4600        74
    61.4800        84
    61.5000        78
    61.5200        92
    61.5400        76
    61.5600        64
    61.5800        76
    61.6000        70
    61.6200        74
    61.6400        66
    61.6600        66
    61.6800        70
    61.7000        54
    61.7200        74
    61.7400        60
    61.7600        78
    61.7800        82
    61.8000        72
    61.8200        72
    61.8400        72
    61.8600        80
    61.8800        70
    61.9000        78
    61.9200        72
    61.9400        72
    61.9600        76
    61.9800        78
    62.0000        72
    62.0200        60
    62.0400        90
    62.0600        74
    62.0800        80
    62.1000        66
    62.1200        90
    62.1400        88
    62.1600        78
    62.1800        86
    62.2000        66
    62.2200        86
    62.2400        66
    62.2600        78
    62.2800        74
    62.3000        82
    62.3200        80
    62.3400        74
    62.3600        88
    62.3800        62
    62.4000        96
    62.4200        58
    62.4400        62
    62.4600        58
    62.4800       100
    62.5000        80
    62.5200        54
    62.5400        74
    62.5600        92
    62.5800        66
    62.6000        74
    62.6200        88
    62.6400        74
    62.6600        68
    62.6800        70
    62.7000        66
    62.7200        74
    62.7400        66
    62.7600        76
    62.7800        66
    62.8000        76
    62.8200        58
    62.8400        78
    62.8600        60
    62.8800        70
    62.9000        68
    62.9200        58
    62.9400        70
    62.9600        62
    62.9800        64
    63.0000        70
    63.0200        56
    63.0400        64
    63.0600        60
    63.0800        78
    63.1000        62
    63.1200        74
    63.1400        56
    63.1600        72
    63.1800        80
    63.2000        66
    63.2200        70
    63.2400        64
    63.2600        84
    63.2800        72
    63.3000        64
    63.3200        70
    63.3400        64
    63.3600        76
    63.3800        60
    63.4000        62
    63.4200        84
    63.4400        78
    63.4600        78
    63.4800        78
    63.5000        70
    63.5200        76
    63.5400        62
    63.5600        66
    63.5800        72
    63.6000        70
    63.6200        68
    63.6400        70
    63.6600        60
    63.6800        60
    63.7000        74
    63.7200        64
    63.7400        70
    63.7600        74
    63.7800        64
    63.8000        66
    63.8200        60
    63.8400        76
    63.8600        74
    63.8800        76
    63.9000        78
    63.9200        74
    63.9400        74
    63.9600        66
    63.9800        86
    64.0000        66
    64.0200        70
    64.0400        86
    64.0600        80
    64.0800        80
    64.1000        96
    64.1200        88
    64.1400        78
    64.1600        92
    64.1800       108
    64.2000       112
    64.2200       112
    64.2400       158
    64.2600       148
    64.2800       158
    64.3000       146
    64.3200       158
    64.3400       152
    64.3600       134
    64.3800       128
    64.4000       124
    64.4200       128
    64.4400       126
    64.4600       120
    64.4800       116
    64.5000        96
    64.5200        98
    64.5400        92
    64.5600        92
    64.5800        88
    64.6000        74
    64.6200        76
    64.6400        76
    64.6600        80
    64.6800        64
    64.7000        66
    64.7200        74
    64.7400        74
    64.7600        68
    64.7800        62
    64.8000        62
    64.8200        78
    64.8400        78
    64.8600        52
    64.8800        64
    64.9000        66
    64.9200        74
    64.9400        76
    64.9600        56
    64.9800        80
    65.0000        62
