/////////////////////////////////////////////////////////////////////////////////
/// Profile Data Ascii Dump (XRD)                                             ///
/////////////////////////////////////////////////////////////////////////////////

  Group     : Swayze
  Data      : GDS822
  File Name : GDS822.RAW

# Profile Datafile
          comment             =   
          date & time         = 08-03-11 06:36:46 

# Measurement Condition
    X-ray tube
          target              = Cu 
          voltage             = 40.0 (kV)
          current             = 30.0 (mA)
    Slits
          divergence slit     = 2.00000 (deg) 
          scatter slit        = 2.00000 (deg) 
          receiving slit      = 0.15000 (mm)  
    Scanning
          drive axis          = Theta-2Theta 
          scan range          =    4.000 -   65.000 
          scan mode           = Continuous Scan 
          scan speed          =   2.0000 (deg/min) 
          sampling pitch      =   0.0200 (deg) 
          preset time         =   0.60 (sec) 

# Data      [ Total No. = 3051 ]
  <2Theta>   <   I   >
     4.0000       170
     4.0200       188
     4.0400       194
     4.0600       182
     4.0800       190
     4.1000       186
     4.1200       144
     4.1400       164
     4.1600       166
     4.1800       176
     4.2000       162
     4.2200       174
     4.2400       184
     4.2600       146
     4.2800       186
     4.3000       194
     4.3200       188
     4.3400       178
     4.3600       186
     4.3800       178
     4.4000       176
     4.4200       172
     4.4400       192
     4.4600       148
     4.4800       164
     4.5000       152
     4.5200       146
     4.5400       186
     4.5600       142
     4.5800       166
     4.6000       172
     4.6200       170
     4.6400       152
     4.6600       168
     4.6800       190
     4.7000       166
     4.7200       166
     4.7400       164
     4.7600       166
     4.7800       160
     4.8000       188
     4.8200       172
     4.8400       156
     4.8600       168
     4.8800       166
     4.9000       164
     4.9200       178
     4.9400       174
     4.9600       156
     4.9800       166
     5.0000       178
     5.0200       168
     5.0400       156
     5.0600       154
     5.0800       168
     5.1000       152
     5.1200       144
     5.1400       162
     5.1600       162
     5.1800       156
     5.2000       160
     5.2200       160
     5.2400       142
     5.2600       162
     5.2800       168
     5.3000       194
     5.3200       168
     5.3400       166
     5.3600       184
     5.3800       170
     5.4000       156
     5.4200       158
     5.4400       160
     5.4600       166
     5.4800       172
     5.5000       158
     5.5200       200
     5.5400       164
     5.5600       170
     5.5800       130
     5.6000       160
     5.6200       156
     5.6400       188
     5.6600       156
     5.6800       170
     5.7000       158
     5.7200       156
     5.7400       166
     5.7600       144
     5.7800       154
     5.8000       174
     5.8200       182
     5.8400       160
     5.8600       154
     5.8800       170
     5.9000       156
     5.9200       162
     5.9400       160
     5.9600       154
     5.9800       124
     6.0000       152
     6.0200       158
     6.0400       168
     6.0600       144
     6.0800       148
     6.1000       176
     6.1200       150
     6.1400       150
     6.1600       148
     6.1800       130
     6.2000       176
     6.2200       174
     6.2400       140
     6.2600       132
     6.2800       156
     6.3000       132
     6.3200       160
     6.3400       132
     6.3600       156
     6.3800       160
     6.4000       148
     6.4200       144
     6.4400       122
     6.4600       158
     6.4800       150
     6.5000       138
     6.5200       112
     6.5400       150
     6.5600       130
     6.5800       142
     6.6000       132
     6.6200       146
     6.6400       130
     6.6600       138
     6.6800       122
     6.7000       120
     6.7200       124
     6.7400       122
     6.7600       140
     6.7800       140
     6.8000       118
     6.8200       128
     6.8400       124
     6.8600       136
     6.8800       116
     6.9000       128
     6.9200       152
     6.9400       148
     6.9600       126
     6.9800       128
     7.0000       130
     7.0200       130
     7.0400       114
     7.0600       124
     7.0800       132
     7.1000       104
     7.1200       108
     7.1400       142
     7.1600       134
     7.1800       118
     7.2000       100
     7.2200       122
     7.2400       112
     7.2600       140
     7.2800       134
     7.3000       138
     7.3200       102
     7.3400       114
     7.3600       134
     7.3800       104
     7.4000       122
     7.4200       118
     7.4400       118
     7.4600       124
     7.4800       136
     7.5000       128
     7.5200       120
     7.5400       124
     7.5600       116
     7.5800       122
     7.6000       120
     7.6200       104
     7.6400       138
     7.6600       120
     7.6800       130
     7.7000       138
     7.7200       128
     7.7400       132
     7.7600       136
     7.7800       132
     7.8000       124
     7.8200       112
     7.8400       126
     7.8600       112
     7.8800       118
     7.9000       128
     7.9200       118
     7.9400       132
     7.9600       114
     7.9800       124
     8.0000       144
     8.0200       114
     8.0400       120
     8.0600       126
     8.0800       112
     8.1000       118
     8.1200        92
     8.1400       136
     8.1600       116
     8.1800       132
     8.2000       132
     8.2200       132
     8.2400       112
     8.2600       112
     8.2800       108
     8.3000       136
     8.3200       126
     8.3400       134
     8.3600       120
     8.3800        98
     8.4000       122
     8.4200       146
     8.4400       126
     8.4600       132
     8.4800       110
     8.5000       116
     8.5200       122
     8.5400       134
     8.5600       132
     8.5800       124
     8.6000       102
     8.6200       126
     8.6400       120
     8.6600       134
     8.6800       108
     8.7000       132
     8.7200       112
     8.7400       112
     8.7600       108
     8.7800       120
     8.8000       120
     8.8200       124
     8.8400       130
     8.8600       148
     8.8800       112
     8.9000       106
     8.9200       108
     8.9400       106
     8.9600       122
     8.9800       120
     9.0000       122
     9.0200       114
     9.0400       116
     9.0600       110
     9.0800       116
     9.1000       124
     9.1200        96
     9.1400       112
     9.1600       136
     9.1800       102
     9.2000       114
     9.2200       106
     9.2400       116
     9.2600       104
     9.2800        98
     9.3000       114
     9.3200       128
     9.3400       144
     9.3600       110
     9.3800       122
     9.4000       132
     9.4200       108
     9.4400       128
     9.4600       104
     9.4800       104
     9.5000       106
     9.5200       106
     9.5400       120
     9.5600        98
     9.5800       112
     9.6000       138
     9.6200       118
     9.6400       120
     9.6600       110
     9.6800       100
     9.7000       140
     9.7200       120
     9.7400       110
     9.7600       102
     9.7800        74
     9.8000       104
     9.8200       114
     9.8400       126
     9.8600        90
     9.8800        96
     9.9000       102
     9.9200       106
     9.9400        96
     9.9600       108
     9.9800       116
    10.0000        94
    10.0200       122
    10.0400       112
    10.0600       122
    10.0800       110
    10.1000        98
    10.1200       122
    10.1400       100
    10.1600       104
    10.1800       126
    10.2000       108
    10.2200        98
    10.2400        98
    10.2600       114
    10.2800        98
    10.3000        98
    10.3200       104
    10.3400        96
    10.3600       112
    10.3800       100
    10.4000        96
    10.4200        98
    10.4400       116
    10.4600        94
    10.4800        96
    10.5000        92
    10.5200        96
    10.5400       122
    10.5600       106
    10.5800       114
    10.6000        92
    10.6200        94
    10.6400        94
    10.6600       112
    10.6800        94
    10.7000       126
    10.7200        76
    10.7400       100
    10.7600        96
    10.7800        88
    10.8000        82
    10.8200        96
    10.8400        92
    10.8600       102
    10.8800        90
    10.9000        92
    10.9200       100
    10.9400        90
    10.9600       110
    10.9800       100
    11.0000        92
    11.0200       102
    11.0400        98
    11.0600       102
    11.0800        86
    11.1000        90
    11.1200        82
    11.1400       102
    11.1600        90
    11.1800        90
    11.2000        80
    11.2200        92
    11.2400        84
    11.2600        80
    11.2800        92
    11.3000       100
    11.3200       100
    11.3400       102
    11.3600        80
    11.3800        80
    11.4000       112
    11.4200        92
    11.4400        92
    11.4600        78
    11.4800        78
    11.5000       100
    11.5200        88
    11.5400        80
    11.5600        92
    11.5800        96
    11.6000        82
    11.6200        96
    11.6400        92
    11.6600        82
    11.6800        64
    11.7000        94
    11.7200        74
    11.7400       104
    11.7600        86
    11.7800        80
    11.8000        68
    11.8200        92
    11.8400        94
    11.8600        98
    11.8800        84
    11.9000        90
    11.9200        92
    11.9400        94
    11.9600        72
    11.9800        72
    12.0000       102
    12.0200        76
    12.0400        94
    12.0600        94
    12.0800        94
    12.1000       102
    12.1200        82
    12.1400        74
    12.1600        72
    12.1800        90
    12.2000        88
    12.2200        98
    12.2400        86
    12.2600        80
    12.2800        92
    12.3000        90
    12.3200        72
    12.3400        70
    12.3600        88
    12.3800        72
    12.4000        92
    12.4200        92
    12.4400        88
    12.4600        92
    12.4800        98
    12.5000        72
    12.5200        98
    12.5400        72
    12.5600        86
    12.5800        76
    12.6000        86
    12.6200        80
    12.6400        78
    12.6600        68
    12.6800        62
    12.7000        84
    12.7200        56
    12.7400        62
    12.7600        84
    12.7800        66
    12.8000        82
    12.8200        72
    12.8400        74
    12.8600        74
    12.8800        94
    12.9000        66
    12.9200        64
    12.9400        76
    12.9600        72
    12.9800        76
    13.0000        70
    13.0200        78
    13.0400        72
    13.0600        86
    13.0800        88
    13.1000        64
    13.1200        80
    13.1400        60
    13.1600        60
    13.1800        72
    13.2000        60
    13.2200        58
    13.2400        80
    13.2600        80
    13.2800        92
    13.3000        62
    13.3200        78
    13.3400        74
    13.3600        72
    13.3800        72
    13.4000        74
    13.4200        76
    13.4400        72
    13.4600        76
    13.4800        80
    13.5000        72
    13.5200        78
    13.5400        72
    13.5600        66
    13.5800        76
    13.6000        76
    13.6200        80
    13.6400        78
    13.6600        68
    13.6800        68
    13.7000        66
    13.7200        78
    13.7400        64
    13.7600        82
    13.7800        66
    13.8000        68
    13.8200        88
    13.8400        68
    13.8600        72
    13.8800        76
    13.9000        60
    13.9200        60
    13.9400        72
    13.9600        56
    13.9800        72
    14.0000        66
    14.0200        68
    14.0400        70
    14.0600        78
    14.0800        78
    14.1000        62
    14.1200        64
    14.1400        76
    14.1600        66
    14.1800        56
    14.2000        70
    14.2200        66
    14.2400        76
    14.2600        64
    14.2800        72
    14.3000        66
    14.3200        66
    14.3400        52
    14.3600        54
    14.3800        76
    14.4000        84
    14.4200        82
    14.4400        72
    14.4600        76
    14.4800        62
    14.5000        60
    14.5200        72
    14.5400        76
    14.5600        68
    14.5800        62
    14.6000        78
    14.6200        58
    14.6400        78
    14.6600        74
    14.6800        62
    14.7000        72
    14.7200        76
    14.7400        80
    14.7600        82
    14.7800        58
    14.8000        76
    14.8200        74
    14.8400        62
    14.8600        58
    14.8800        54
    14.9000        64
    14.9200        80
    14.9400        72
    14.9600        66
    14.9800        62
    15.0000        64
    15.0200        62
    15.0400        70
    15.0600        76
    15.0800        52
    15.1000        64
    15.1200        62
    15.1400        64
    15.1600        62
    15.1800        84
    15.2000        78
    15.2200        74
    15.2400        98
    15.2600        74
    15.2800        92
    15.3000        94
    15.3200       108
    15.3400        96
    15.3600       126
    15.3800       128
    15.4000       136
    15.4200       134
    15.4400       128
    15.4600       122
    15.4800       104
    15.5000        96
    15.5200        92
    15.5400        94
    15.5600       106
    15.5800        64
    15.6000        76
    15.6200        72
    15.6400        64
    15.6600        74
    15.6800        76
    15.7000        56
    15.7200        90
    15.7400        52
    15.7600        62
    15.7800        60
    15.8000        58
    15.8200        62
    15.8400        58
    15.8600        66
    15.8800        54
    15.9000        60
    15.9200        36
    15.9400        68
    15.9600        66
    15.9800        58
    16.0000        56
    16.0200        60
    16.0400        70
    16.0600        74
    16.0800        54
    16.1000        64
    16.1200        44
    16.1400        64
    16.1600        64
    16.1800        40
    16.2000        74
    16.2200        58
    16.2400        60
    16.2600        72
    16.2800        54
    16.3000        70
    16.3200        40
    16.3400        46
    16.3600        54
    16.3800        68
    16.4000        50
    16.4200        68
    16.4400        58
    16.4600        52
    16.4800        62
    16.5000        48
    16.5200        68
    16.5400        52
    16.5600        62
    16.5800        66
    16.6000        56
    16.6200        64
    16.6400        44
    16.6600        68
    16.6800        56
    16.7000        60
    16.7200        50
    16.7400        60
    16.7600        64
    16.7800        68
    16.8000        44
    16.8200        64
    16.8400        42
    16.8600        58
    16.8800        50
    16.9000        44
    16.9200        54
    16.9400        68
    16.9600        66
    16.9800        72
    17.0000        68
    17.0200        50
    17.0400        58
    17.0600        62
    17.0800        62
    17.1000        60
    17.1200        70
    17.1400        66
    17.1600        52
    17.1800        56
    17.2000        74
    17.2200        84
    17.2400        60
    17.2600        74
    17.2800        60
    17.3000        52
    17.3200        72
    17.3400        68
    17.3600        66
    17.3800        74
    17.4000        66
    17.4200        76
    17.4400        90
    17.4600        90
    17.4800        92
    17.5000       114
    17.5200       138
    17.5400       144
    17.5600       134
    17.5800       150
    17.6000       150
    17.6200       174
    17.6400       204
    17.6600       238
    17.6800       288
    17.7000       316
    17.7200       360
    17.7400       458
    17.7600       538
    17.7800       656
    17.8000       738
    17.8200       738
    17.8400       784
    17.8600       762
    17.8800       712
    17.9000       630
    17.9200       500
    17.9400       470
    17.9600       462
    17.9800       384
    18.0000       330
    18.0200       290
    18.0400       222
    18.0600       168
    18.0800       140
    18.1000       110
    18.1200       100
    18.1400        92
    18.1600        86
    18.1800        70
    18.2000        64
    18.2200        62
    18.2400        58
    18.2600        66
    18.2800        82
    18.3000        68
    18.3200        60
    18.3400        54
    18.3600        48
    18.3800        76
    18.4000        58
    18.4200        48
    18.4400        62
    18.4600        60
    18.4800        64
    18.5000        48
    18.5200        40
    18.5400        50
    18.5600        54
    18.5800        58
    18.6000        52
    18.6200        60
    18.6400        62
    18.6600        66
    18.6800        54
    18.7000        58
    18.7200        44
    18.7400        50
    18.7600        52
    18.7800        52
    18.8000        60
    18.8200        48
    18.8400        50
    18.8600        56
    18.8800        58
    18.9000        46
    18.9200        52
    18.9400        54
    18.9600        60
    18.9800        46
    19.0000        58
    19.0200        54
    19.0400        42
    19.0600        56
    19.0800        62
    19.1000        58
    19.1200        42
    19.1400        44
    19.1600        44
    19.1800        46
    19.2000        42
    19.2200        46
    19.2400        42
    19.2600        42
    19.2800        52
    19.3000        66
    19.3200        60
    19.3400        46
    19.3600        46
    19.3800        42
    19.4000        56
    19.4200        48
    19.4400        52
    19.4600        50
    19.4800        50
    19.5000        40
    19.5200        48
    19.5400        50
    19.5600        52
    19.5800        50
    19.6000        58
    19.6200        52
    19.6400        54
    19.6600        38
    19.6800        56
    19.7000        66
    19.7200        42
    19.7400        60
    19.7600        38
    19.7800        48
    19.8000        42
    19.8200        60
    19.8400        46
    19.8600        50
    19.8800        48
    19.9000        58
    19.9200        50
    19.9400        44
    19.9600        48
    19.9800        40
    20.0000        48
    20.0200        48
    20.0400        50
    20.0600        44
    20.0800        44
    20.1000        54
    20.1200        56
    20.1400        56
    20.1600        46
    20.1800        46
    20.2000        46
    20.2200        44
    20.2400        60
    20.2600        50
    20.2800        52
    20.3000        44
    20.3200        50
    20.3400        50
    20.3600        54
    20.3800        68
    20.4000        46
    20.4200        52
    20.4400        36
    20.4600        52
    20.4800        56
    20.5000        44
    20.5200        56
    20.5400        42
    20.5600        54
    20.5800        56
    20.6000        28
    20.6200        44
    20.6400        44
    20.6600        60
    20.6800        56
    20.7000        52
    20.7200        50
    20.7400        42
    20.7600        44
    20.7800        50
    20.8000        42
    20.8200        58
    20.8400        48
    20.8600        38
    20.8800        46
    20.9000        40
    20.9200        38
    20.9400        32
    20.9600        28
    20.9800        34
    21.0000        44
    21.0200        48
    21.0400        52
    21.0600        46
    21.0800        42
    21.1000        42
    21.1200        48
    21.1400        34
    21.1600        50
    21.1800        44
    21.2000        40
    21.2200        50
    21.2400        44
    21.2600        40
    21.2800        52
    21.3000        40
    21.3200        48
    21.3400        34
    21.3600        32
    21.3800        52
    21.4000        54
    21.4200        48
    21.4400        34
    21.4600        54
    21.4800        38
    21.5000        42
    21.5200        56
    21.5400        38
    21.5600        40
    21.5800        30
    21.6000        44
    21.6200        46
    21.6400        28
    21.6600        44
    21.6800        50
    21.7000        36
    21.7200        38
    21.7400        54
    21.7600        46
    21.7800        36
    21.8000        34
    21.8200        58
    21.8400        38
    21.8600        42
    21.8800        44
    21.9000        40
    21.9200        48
    21.9400        32
    21.9600        46
    21.9800        36
    22.0000        42
    22.0200        48
    22.0400        34
    22.0600        38
    22.0800        52
    22.1000        54
    22.1200        34
    22.1400        50
    22.1600        40
    22.1800        34
    22.2000        36
    22.2200        44
    22.2400        38
    22.2600        42
    22.2800        48
    22.3000        58
    22.3200        40
    22.3400        42
    22.3600        62
    22.3800        56
    22.4000        50
    22.4200        38
    22.4400        48
    22.4600        52
    22.4800        38
    22.5000        50
    22.5200        52
    22.5400        44
    22.5600        54
    22.5800        54
    22.6000        48
    22.6200        60
    22.6400        48
    22.6600        46
    22.6800        70
    22.7000        70
    22.7200        92
    22.7400        68
    22.7600        96
    22.7800       112
    22.8000       104
    22.8200        96
    22.8400       102
    22.8600        84
    22.8800        74
    22.9000        64
    22.9200        60
    22.9400        54
    22.9600        54
    22.9800        46
    23.0000        54
    23.0200        44
    23.0400        38
    23.0600        38
    23.0800        50
    23.1000        50
    23.1200        48
    23.1400        48
    23.1600        44
    23.1800        36
    23.2000        46
    23.2200        46
    23.2400        34
    23.2600        42
    23.2800        64
    23.3000        60
    23.3200        56
    23.3400        48
    23.3600        44
    23.3800        36
    23.4000        36
    23.4200        50
    23.4400        34
    23.4600        40
    23.4800        50
    23.5000        40
    23.5200        40
    23.5400        32
    23.5600        46
    23.5800        50
    23.6000        56
    23.6200        52
    23.6400        52
    23.6600        42
    23.6800        46
    23.7000        54
    23.7200        62
    23.7400        48
    23.7600        44
    23.7800        46
    23.8000        36
    23.8200        50
    23.8400        62
    23.8600        52
    23.8800        48
    23.9000        48
    23.9200        40
    23.9400        48
    23.9600        52
    23.9800        52
    24.0000        38
    24.0200        42
    24.0400        48
    24.0600        48
    24.0800        50
    24.1000        72
    24.1200        58
    24.1400        68
    24.1600        64
    24.1800        58
    24.2000        58
    24.2200        66
    24.2400        62
    24.2600        56
    24.2800        64
    24.3000        50
    24.3200        66
    24.3400        54
    24.3600        54
    24.3800        54
    24.4000        50
    24.4200        74
    24.4400        54
    24.4600        58
    24.4800        70
    24.5000        66
    24.5200        62
    24.5400        72
    24.5600        62
    24.5800        60
    24.6000        60
    24.6200        60
    24.6400        68
    24.6600        62
    24.6800        72
    24.7000        76
    24.7200        84
    24.7400        62
    24.7600        76
    24.7800        68
    24.8000        80
    24.8200        92
    24.8400        86
    24.8600       108
    24.8800       110
    24.9000       128
    24.9200       148
    24.9400       166
    24.9600       216
    24.9800       200
    25.0000       232
    25.0200       318
    25.0400       346
    25.0600       420
    25.0800       466
    25.1000       562
    25.1200       678
    25.1400       802
    25.1600      1062
    25.1800      1328
    25.2000      1746
    25.2200      2210
    25.2400      2756
    25.2600      3338
    25.2800      4072
    25.3000      4276
    25.3200      4602
    25.3400      4450
    25.3600      3874
    25.3800      3260
    25.4000      2506
    25.4200      1816
    25.4400      1246
    25.4600       860
    25.4800       590
    25.5000       396
    25.5200       314
    25.5400       202
    25.5600       206
    25.5800       170
    25.6000       150
    25.6200       116
    25.6400       116
    25.6600       110
    25.6800        96
    25.7000        82
    25.7200        82
    25.7400        70
    25.7600        62
    25.7800        72
    25.8000        50
    25.8200        68
    25.8400        58
    25.8600        66
    25.8800        50
    25.9000        78
    25.9200        72
    25.9400        48
    25.9600        42
    25.9800        48
    26.0000        46
    26.0200        44
    26.0400        44
    26.0600        38
    26.0800        36
    26.1000        40
    26.1200        46
    26.1400        40
    26.1600        36
    26.1800        44
    26.2000        44
    26.2200        38
    26.2400        42
    26.2600        50
    26.2800        40
    26.3000        52
    26.3200        38
    26.3400        28
    26.3600        44
    26.3800        38
    26.4000        46
    26.4200        44
    26.4400        42
    26.4600        38
    26.4800        42
    26.5000        40
    26.5200        36
    26.5400        30
    26.5600        46
    26.5800        48
    26.6000        38
    26.6200        38
    26.6400        62
    26.6600        48
    26.6800        42
    26.7000        42
    26.7200        44
    26.7400        54
    26.7600        44
    26.7800        42
    26.8000        46
    26.8200        44
    26.8400        46
    26.8600        48
    26.8800        44
    26.9000        32
    26.9200        38
    26.9400        42
    26.9600        38
    26.9800        32
    27.0000        40
    27.0200        54
    27.0400        46
    27.0600        26
    27.0800        38
    27.1000        46
    27.1200        36
    27.1400        32
    27.1600        40
    27.1800        36
    27.2000        40
    27.2200        36
    27.2400        46
    27.2600        40
    27.2800        40
    27.3000        32
    27.3200        34
    27.3400        38
    27.3600        36
    27.3800        26
    27.4000        38
    27.4200        32
    27.4400        26
    27.4600        40
    27.4800        38
    27.5000        26
    27.5200        44
    27.5400        40
    27.5600        34
    27.5800        48
    27.6000        34
    27.6200        32
    27.6400        42
    27.6600        38
    27.6800        44
    27.7000        30
    27.7200        32
    27.7400        48
    27.7600        38
    27.7800        24
    27.8000        36
    27.8200        36
    27.8400        36
    27.8600        38
    27.8800        32
    27.9000        24
    27.9200        32
    27.9400        28
    27.9600        32
    27.9800        38
    28.0000        34
    28.0200        40
    28.0400        38
    28.0600        50
    28.0800        48
    28.1000        40
    28.1200        36
    28.1400        42
    28.1600        36
    28.1800        24
    28.2000        34
    28.2200        40
    28.2400        38
    28.2600        36
    28.2800        38
    28.3000        40
    28.3200        44
    28.3400        34
    28.3600        44
    28.3800        46
    28.4000        30
    28.4200        38
    28.4400        42
    28.4600        32
    28.4800        54
    28.5000        34
    28.5200        42
    28.5400        40
    28.5600        30
    28.5800        38
    28.6000        32
    28.6200        42
    28.6400        36
    28.6600        36
    28.6800        36
    28.7000        46
    28.7200        30
    28.7400        36
    28.7600        30
    28.7800        46
    28.8000        40
    28.8200        40
    28.8400        40
    28.8600        50
    28.8800        42
    28.9000        46
    28.9200        42
    28.9400        40
    28.9600        56
    28.9800        34
    29.0000        32
    29.0200        38
    29.0400        38
    29.0600        40
    29.0800        48
    29.1000        38
    29.1200        52
    29.1400        50
    29.1600        50
    29.1800        48
    29.2000        44
    29.2200        40
    29.2400        50
    29.2600        36
    29.2800        50
    29.3000        46
    29.3200        66
    29.3400        40
    29.3600        52
    29.3800        68
    29.4000        60
    29.4200        56
    29.4400        68
    29.4600        80
    29.4800       104
    29.5000       118
    29.5200       128
    29.5400       120
    29.5600       138
    29.5800       174
    29.6000       188
    29.6200       248
    29.6400       302
    29.6600       416
    29.6800       518
    29.7000       650
    29.7200       810
    29.7400      1022
    29.7600      1202
    29.7800      1346
    29.8000      1462
    29.8200      1570
    29.8400      1598
    29.8600      1460
    29.8800      1386
    29.9000      1276
    29.9200      1098
    29.9400      1016
    29.9600       878
    29.9800       786
    30.0000       738
    30.0200       674
    30.0400       622
    30.0600       528
    30.0800       478
    30.1000       372
    30.1200       342
    30.1400       344
    30.1600       276
    30.1800       236
    30.2000       200
    30.2200       154
    30.2400       124
    30.2600       122
    30.2800       106
    30.3000        96
    30.3200       102
    30.3400        98
    30.3600        78
    30.3800        72
    30.4000        70
    30.4200        68
    30.4400        90
    30.4600        64
    30.4800        68
    30.5000        42
    30.5200        46
    30.5400        54
    30.5600        36
    30.5800        46
    30.6000        44
    30.6200        48
    30.6400        34
    30.6600        38
    30.6800        36
    30.7000        50
    30.7200        38
    30.7400        34
    30.7600        28
    30.7800        54
    30.8000        40
    30.8200        32
    30.8400        36
    30.8600        36
    30.8800        42
    30.9000        38
    30.9200        28
    30.9400        42
    30.9600        46
    30.9800        56
    31.0000        56
    31.0200        46
    31.0400        58
    31.0600        60
    31.0800        92
    31.1000        96
    31.1200        96
    31.1400       134
    31.1600       176
    31.1800       214
    31.2000       208
    31.2200       210
    31.2400       232
    31.2600       218
    31.2800       234
    31.3000       194
    31.3200       154
    31.3400       126
    31.3600       120
    31.3800        86
    31.4000        90
    31.4200        62
    31.4400        78
    31.4600        54
    31.4800        48
    31.5000        48
    31.5200        50
    31.5400        42
    31.5600        56
    31.5800        66
    31.6000        58
    31.6200        46
    31.6400        54
    31.6600        58
    31.6800        58
    31.7000        56
    31.7200        78
    31.7400        80
    31.7600        88
    31.7800       118
    31.8000       124
    31.8200       106
    31.8400       120
    31.8600       112
    31.8800       104
    31.9000        94
    31.9200        94
    31.9400        86
    31.9600        56
    31.9800        56
    32.0000        56
    32.0200        42
    32.0400        36
    32.0600        44
    32.0800        38
    32.1000        36
    32.1200        30
    32.1400        50
    32.1600        28
    32.1800        30
    32.2000        32
    32.2200        42
    32.2400        30
    32.2600        22
    32.2800        38
    32.3000        20
    32.3200        48
    32.3400        32
    32.3600        38
    32.3800        22
    32.4000        42
    32.4200        30
    32.4400        28
    32.4600        32
    32.4800        38
    32.5000        28
    32.5200        32
    32.5400        26
    32.5600        28
    32.5800        30
    32.6000        18
    32.6200        26
    32.6400        30
    32.6600        36
    32.6800        32
    32.7000        32
    32.7200        16
    32.7400        24
    32.7600        24
    32.7800        26
    32.8000        26
    32.8200        34
    32.8400        22
    32.8600        30
    32.8800        30
    32.9000        30
    32.9200        24
    32.9400        28
    32.9600        34
    32.9800        28
    33.0000        34
    33.0200        32
    33.0400        32
    33.0600        26
    33.0800        30
    33.1000        26
    33.1200        26
    33.1400        28
    33.1600        26
    33.1800        18
    33.2000        24
    33.2200        20
    33.2400        14
    33.2600        36
    33.2800        28
    33.3000        28
    33.3200        28
    33.3400        32
    33.3600        32
    33.3800        22
    33.4000        28
    33.4200        20
    33.4400        36
    33.4600        28
    33.4800        30
    33.5000        26
    33.5200        24
    33.5400        28
    33.5600        26
    33.5800        24
    33.6000        22
    33.6200        26
    33.6400        22
    33.6600        20
    33.6800        28
    33.7000        28
    33.7200        14
    33.7400        40
    33.7600        34
    33.7800        28
    33.8000        30
    33.8200        28
    33.8400        26
    33.8600        22
    33.8800        18
    33.9000        18
    33.9200        22
    33.9400        36
    33.9600        32
    33.9800        24
    34.0000        34
    34.0200        28
    34.0400        36
    34.0600        30
    34.0800        24
    34.1000        32
    34.1200        24
    34.1400        30
    34.1600        34
    34.1800        26
    34.2000        20
    34.2200        32
    34.2400        26
    34.2600        26
    34.2800        16
    34.3000        26
    34.3200        28
    34.3400        24
    34.3600        16
    34.3800        24
    34.4000        28
    34.4200        28
    34.4400        18
    34.4600        24
    34.4800        28
    34.5000        24
    34.5200        22
    34.5400        18
    34.5600        24
    34.5800        22
    34.6000        28
    34.6200        24
    34.6400        28
    34.6600        32
    34.6800        34
    34.7000        28
    34.7200        26
    34.7400        28
    34.7600        26
    34.7800        28
    34.8000        36
    34.8200        20
    34.8400        36
    34.8600        26
    34.8800        26
    34.9000        34
    34.9200        22
    34.9400        28
    34.9600        24
    34.9800        26
    35.0000        40
    35.0200        34
    35.0400        22
    35.0600        20
    35.0800        32
    35.1000        18
    35.1200        42
    35.1400        16
    35.1600        24
    35.1800        20
    35.2000        24
    35.2200        20
    35.2400        30
    35.2600        24
    35.2800        20
    35.3000        24
    35.3200        30
    35.3400        28
    35.3600        22
    35.3800        34
    35.4000        28
    35.4200        18
    35.4400        28
    35.4600        44
    35.4800        22
    35.5000        24
    35.5200        28
    35.5400        18
    35.5600        28
    35.5800        24
    35.6000        26
    35.6200        20
    35.6400        20
    35.6600        32
    35.6800        30
    35.7000        36
    35.7200        30
    35.7400        30
    35.7600        28
    35.7800        24
    35.8000        30
    35.8200        42
    35.8400        32
    35.8600        42
    35.8800        44
    35.9000        40
    35.9200        46
    35.9400        58
    35.9600        74
    35.9800        74
    36.0000        92
    36.0200       100
    36.0400       110
    36.0600       160
    36.0800       212
    36.1000       206
    36.1200       286
    36.1400       264
    36.1600       304
    36.1800       302
    36.2000       278
    36.2200       216
    36.2400       270
    36.2600       178
    36.2800       170
    36.3000       144
    36.3200       108
    36.3400        82
    36.3600        78
    36.3800        54
    36.4000        44
    36.4200        42
    36.4400        42
    36.4600        52
    36.4800        60
    36.5000        50
    36.5200        38
    36.5400        46
    36.5600        32
    36.5800        34
    36.6000        32
    36.6200        36
    36.6400        34
    36.6600        32
    36.6800        32
    36.7000        36
    36.7200        34
    36.7400        24
    36.7600        28
    36.7800        30
    36.8000        30
    36.8200        30
    36.8400        34
    36.8600        24
    36.8800        30
    36.9000        22
    36.9200        26
    36.9400        28
    36.9600        32
    36.9800        24
    37.0000        38
    37.0200        26
    37.0400        34
    37.0600        32
    37.0800        22
    37.1000        22
    37.1200        30
    37.1400        26
    37.1600        32
    37.1800        24
    37.2000        34
    37.2200        14
    37.2400        30
    37.2600        30
    37.2800        24
    37.3000        36
    37.3200        30
    37.3400        30
    37.3600        30
    37.3800        28
    37.4000        20
    37.4200        30
    37.4400        24
    37.4600        32
    37.4800        32
    37.5000        36
    37.5200        26
    37.5400        30
    37.5600        22
    37.5800        22
    37.6000        20
    37.6200        34
    37.6400        28
    37.6600        26
    37.6800        26
    37.7000        36
    37.7200        34
    37.7400        22
    37.7600        26
    37.7800        22
    37.8000        18
    37.8200        34
    37.8400        42
    37.8600        30
    37.8800        26
    37.9000        24
    37.9200        26
    37.9400        34
    37.9600        40
    37.9800        26
    38.0000        26
    38.0200        42
    38.0400        42
    38.0600        34
    38.0800        30
    38.1000        30
    38.1200        36
    38.1400        34
    38.1600        30
    38.1800        38
    38.2000        42
    38.2200        40
    38.2400        44
    38.2600        34
    38.2800        42
    38.3000        44
    38.3200        50
    38.3400        48
    38.3600        56
    38.3800        78
    38.4000        68
    38.4200        92
    38.4400       134
    38.4600       128
    38.4800       140
    38.5000       142
    38.5200       158
    38.5400       158
    38.5600       158
    38.5800       146
    38.6000       120
    38.6200        84
    38.6400        88
    38.6600        76
    38.6800        62
    38.7000        42
    38.7200        46
    38.7400        36
    38.7600        44
    38.7800        28
    38.8000        30
    38.8200        28
    38.8400        44
    38.8600        34
    38.8800        26
    38.9000        30
    38.9200        30
    38.9400        34
    38.9600        22
    38.9800        30
    39.0000        30
    39.0200        36
    39.0400        26
    39.0600        38
    39.0800        26
    39.1000        36
    39.1200        34
    39.1400        34
    39.1600        30
    39.1800        30
    39.2000        26
    39.2200        28
    39.2400        40
    39.2600        36
    39.2800        38
    39.3000        28
    39.3200        54
    39.3400        34
    39.3600        28
    39.3800        62
    39.4000        62
    39.4200        68
    39.4400        86
    39.4600        78
    39.4800        84
    39.5000       104
    39.5200       124
    39.5400       130
    39.5600       154
    39.5800       188
    39.6000       200
    39.6200       232
    39.6400       234
    39.6600       212
    39.6800       220
    39.7000       218
    39.7200       204
    39.7400       204
    39.7600       174
    39.7800       172
    39.8000       172
    39.8200       132
    39.8400       158
    39.8600       120
    39.8800       114
    39.9000       112
    39.9200        82
    39.9400       106
    39.9600        96
    39.9800       102
    40.0000        84
    40.0200        78
    40.0400        78
    40.0600        84
    40.0800        94
    40.1000        86
    40.1200       100
    40.1400       100
    40.1600        92
    40.1800       108
    40.2000       120
    40.2200       118
    40.2400        86
    40.2600       120
    40.2800       130
    40.3000       104
    40.3200       132
    40.3400       146
    40.3600       114
    40.3800       142
    40.4000       136
    40.4200       128
    40.4400       128
    40.4600       128
    40.4800       140
    40.5000       144
    40.5200       124
    40.5400       142
    40.5600       164
    40.5800       196
    40.6000       182
    40.6200       212
    40.6400       246
    40.6600       246
    40.6800       236
    40.7000       258
    40.7200       198
    40.7400       210
    40.7600       188
    40.7800       194
    40.8000       162
    40.8200       126
    40.8400       114
    40.8600        88
    40.8800        80
    40.9000        68
    40.9200        70
    40.9400        60
    40.9600        62
    40.9800        58
    41.0000        66
    41.0200        82
    41.0400        68
    41.0600       100
    41.0800       116
    41.1000       106
    41.1200       144
    41.1400       176
    41.1600       184
    41.1800       176
    41.2000       170
    41.2200       186
    41.2400       150
    41.2600       136
    41.2800       136
    41.3000       110
    41.3200        96
    41.3400        70
    41.3600        78
    41.3800        64
    41.4000        42
    41.4200        36
    41.4400        16
    41.4600        40
    41.4800        34
    41.5000        40
    41.5200        42
    41.5400        24
    41.5600        32
    41.5800        28
    41.6000        28
    41.6200        44
    41.6400        28
    41.6600        32
    41.6800        28
    41.7000        30
    41.7200        28
    41.7400        30
    41.7600        22
    41.7800        40
    41.8000        20
    41.8200        28
    41.8400        18
    41.8600        24
    41.8800        24
    41.9000        24
    41.9200        26
    41.9400        20
    41.9600        26
    41.9800        30
    42.0000        14
    42.0200        24
    42.0400        28
    42.0600        32
    42.0800        30
    42.1000        20
    42.1200        26
    42.1400        28
    42.1600        26
    42.1800        22
    42.2000        22
    42.2200        22
    42.2400        22
    42.2600        24
    42.2800        22
    42.3000        38
    42.3200        26
    42.3400        26
    42.3600        36
    42.3800        20
    42.4000        44
    42.4200        32
    42.4400        28
    42.4600        22
    42.4800        28
    42.5000        26
    42.5200        20
    42.5400        26
    42.5600        38
    42.5800        28
    42.6000        22
    42.6200        32
    42.6400        26
    42.6600        40
    42.6800        24
    42.7000        28
    42.7200        26
    42.7400        28
    42.7600        28
    42.7800        42
    42.8000        40
    42.8200        36
    42.8400        26
    42.8600        32
    42.8800        36
    42.9000        34
    42.9200        32
    42.9400        40
    42.9600        40
    42.9800        30
    43.0000        34
    43.0200        66
    43.0400        60
    43.0600        64
    43.0800        68
    43.1000        76
    43.1200       114
    43.1400       144
    43.1600       148
    43.1800       198
    43.2000       210
    43.2200       216
    43.2400       204
    43.2600       198
    43.2800       170
    43.3000       172
    43.3200       136
    43.3400       138
    43.3600       112
    43.3800        94
    43.4000        68
    43.4200        70
    43.4400        48
    43.4600        40
    43.4800        28
    43.5000        38
    43.5200        36
    43.5400        18
    43.5600        26
    43.5800        24
    43.6000        34
    43.6200        30
    43.6400        34
    43.6600        36
    43.6800        16
    43.7000        32
    43.7200        34
    43.7400        26
    43.7600        30
    43.7800        30
    43.8000        22
    43.8200        22
    43.8400        34
    43.8600        22
    43.8800        32
    43.9000        28
    43.9200        20
    43.9400        30
    43.9600        20
    43.9800        24
    44.0000        26
    44.0200        26
    44.0400        26
    44.0600        28
    44.0800        22
    44.1000        40
    44.1200        26
    44.1400        22
    44.1600        26
    44.1800        26
    44.2000        22
    44.2200        20
    44.2400        20
    44.2600        28
    44.2800        36
    44.3000        34
    44.3200        16
    44.3400        26
    44.3600        20
    44.3800        30
    44.4000        24
    44.4200        22
    44.4400        26
    44.4600        18
    44.4800        26
    44.5000        22
    44.5200        26
    44.5400        22
    44.5600        28
    44.5800        20
    44.6000        32
    44.6200        10
    44.6400        20
    44.6600        22
    44.6800        30
    44.7000        30
    44.7200        30
    44.7400        14
    44.7600        22
    44.7800        28
    44.8000        22
    44.8200        24
    44.8400        22
    44.8600        26
    44.8800        20
    44.9000        20
    44.9200        20
    44.9400        26
    44.9600        28
    44.9800        24
    45.0000        32
    45.0200        18
    45.0400        34
    45.0600        28
    45.0800        28
    45.1000        34
    45.1200        22
    45.1400        28
    45.1600        30
    45.1800        38
    45.2000        36
    45.2200        38
    45.2400        34
    45.2600        48
    45.2800        48
    45.3000        30
    45.3200        50
    45.3400        48
    45.3600        52
    45.3800        46
    45.4000        54
    45.4200        40
    45.4400        34
    45.4600        56
    45.4800        34
    45.5000        24
    45.5200        28
    45.5400        34
    45.5600        34
    45.5800        32
    45.6000        32
    45.6200        16
    45.6400        22
    45.6600        18
    45.6800        24
    45.7000        30
    45.7200        28
    45.7400        32
    45.7600        24
    45.7800        30
    45.8000        18
    45.8200        28
    45.8400        28
    45.8600        18
    45.8800        34
    45.9000        26
    45.9200        36
    45.9400        24
    45.9600        28
    45.9800        22
    46.0000        26
    46.0200        28
    46.0400        24
    46.0600        32
    46.0800        34
    46.1000        36
    46.1200        38
    46.1400        28
    46.1600        18
    46.1800        18
    46.2000        34
    46.2200        30
    46.2400        20
    46.2600        28
    46.2800        20
    46.3000        28
    46.3200        34
    46.3400        34
    46.3600        30
    46.3800        22
    46.4000        34
    46.4200        30
    46.4400        32
    46.4600        26
    46.4800        18
    46.5000        24
    46.5200        22
    46.5400        30
    46.5600        34
    46.5800        36
    46.6000        36
    46.6200        44
    46.6400        40
    46.6600        44
    46.6800        56
    46.7000        60
    46.7200        64
    46.7400        72
    46.7600        68
    46.7800        48
    46.8000        50
    46.8200        62
    46.8400        46
    46.8600        42
    46.8800        52
    46.9000        40
    46.9200        24
    46.9400        38
    46.9600        40
    46.9800        36
    47.0000        34
    47.0200        24
    47.0400        30
    47.0600        46
    47.0800        26
    47.1000        38
    47.1200        32
    47.1400        40
    47.1600        38
    47.1800        38
    47.2000        36
    47.2200        38
    47.2400        38
    47.2600        52
    47.2800        40
    47.3000        52
    47.3200        48
    47.3400        56
    47.3600        76
    47.3800        78
    47.4000        80
    47.4200        84
    47.4400       114
    47.4600       144
    47.4800       172
    47.5000       212
    47.5200       242
    47.5400       298
    47.5600       300
    47.5800       352
    47.6000       336
    47.6200       378
    47.6400       402
    47.6600       380
    47.6800       398
    47.7000       386
    47.7200       370
    47.7400       344
    47.7600       346
    47.7800       302
    47.8000       338
    47.8200       280
    47.8400       246
    47.8600       250
    47.8800       222
    47.9000       204
    47.9200       160
    47.9400       174
    47.9600       152
    47.9800       124
    48.0000       116
    48.0200        90
    48.0400        92
    48.0600        82
    48.0800        88
    48.1000        76
    48.1200        64
    48.1400        66
    48.1600        54
    48.1800        52
    48.2000        64
    48.2200        56
    48.2400        72
    48.2600        54
    48.2800        68
    48.3000        66
    48.3200        60
    48.3400        56
    48.3600        62
    48.3800        64
    48.4000        68
    48.4200        80
    48.4400        94
    48.4600       120
    48.4800       160
    48.5000       196
    48.5200       214
    48.5400       234
    48.5600       244
    48.5800       236
    48.6000       184
    48.6200       168
    48.6400       156
    48.6600       136
    48.6800       140
    48.7000       120
    48.7200       138
    48.7400        86
    48.7600        82
    48.7800        72
    48.8000        78
    48.8200        56
    48.8400        76
    48.8600        56
    48.8800        74
    48.9000        80
    48.9200        84
    48.9400       102
    48.9600        94
    48.9800       102
    49.0000       122
    49.0200       114
    49.0400        98
    49.0600       112
    49.0800       102
    49.1000        98
    49.1200        74
    49.1400        80
    49.1600        66
    49.1800        62
    49.2000        50
    49.2200        44
    49.2400        36
    49.2600        32
    49.2800        38
    49.3000        42
    49.3200        38
    49.3400        30
    49.3600        22
    49.3800        44
    49.4000        26
    49.4200        34
    49.4400        30
    49.4600        24
    49.4800        38
    49.5000        16
    49.5200        34
    49.5400        32
    49.5600        32
    49.5800        24
    49.6000        34
    49.6200        30
    49.6400        28
    49.6600        20
    49.6800        32
    49.7000        36
    49.7200        24
    49.7400        28
    49.7600        34
    49.7800        34
    49.8000        24
    49.8200        26
    49.8400        36
    49.8600        34
    49.8800        32
    49.9000        28
    49.9200        30
    49.9400        30
    49.9600        34
    49.9800        32
    50.0000        30
    50.0200        30
    50.0400        32
    50.0600        30
    50.0800        24
    50.1000        22
    50.1200        22
    50.1400        28
    50.1600        30
    50.1800        24
    50.2000        24
    50.2200        22
    50.2400        32
    50.2600        22
    50.2800        26
    50.3000        20
    50.3200        26
    50.3400        22
    50.3600        14
    50.3800        28
    50.4000        24
    50.4200        26
    50.4400        32
    50.4600        40
    50.4800        34
    50.5000        30
    50.5200        24
    50.5400        20
    50.5600        20
    50.5800        26
    50.6000        24
    50.6200        36
    50.6400        40
    50.6600        16
    50.6800        24
    50.7000        26
    50.7200        30
    50.7400        20
    50.7600        28
    50.7800        22
    50.8000        34
    50.8200        18
    50.8400        24
    50.8600        20
    50.8800        30
    50.9000        22
    50.9200        32
    50.9400        20
    50.9600        22
    50.9800        20
    51.0000        32
    51.0200        24
    51.0400        24
    51.0600        26
    51.0800        20
    51.1000        20
    51.1200        26
    51.1400        26
    51.1600        28
    51.1800        22
    51.2000        20
    51.2200        32
    51.2400        16
    51.2600        32
    51.2800        32
    51.3000        24
    51.3200        40
    51.3400        24
    51.3600        22
    51.3800        36
    51.4000        24
    51.4200        18
    51.4400        22
    51.4600        36
    51.4800        26
    51.5000        18
    51.5200        26
    51.5400        46
    51.5600        22
    51.5800        38
    51.6000        30
    51.6200        28
    51.6400        26
    51.6600        28
    51.6800        40
    51.7000        38
    51.7200        42
    51.7400        36
    51.7600        34
    51.7800        44
    51.8000        50
    51.8200        70
    51.8400        62
    51.8600        76
    51.8800        68
    51.9000        94
    51.9200       118
    51.9400       134
    51.9600       198
    51.9800       244
    52.0000       308
    52.0200       382
    52.0400       486
    52.0600       546
    52.0800       604
    52.1000       674
    52.1200       614
    52.1400       624
    52.1600       638
    52.1800       650
    52.2000       622
    52.2200       524
    52.2400       516
    52.2600       474
    52.2800       410
    52.3000       374
    52.3200       352
    52.3400       276
    52.3600       216
    52.3800       168
    52.4000       138
    52.4200       120
    52.4400       104
    52.4600        94
    52.4800        70
    52.5000        60
    52.5200        64
    52.5400        54
    52.5600        44
    52.5800        32
    52.6000        40
    52.6200        32
    52.6400        54
    52.6600        50
    52.6800        28
    52.7000        40
    52.7200        36
    52.7400        46
    52.7600        26
    52.7800        28
    52.8000        36
    52.8200        46
    52.8400        34
    52.8600        40
    52.8800        28
    52.9000        36
    52.9200        34
    52.9400        26
    52.9600        36
    52.9800        32
    53.0000        24
    53.0200        24
    53.0400        24
    53.0600        36
    53.0800        34
    53.1000        22
    53.1200        24
    53.1400        22
    53.1600        18
    53.1800        34
    53.2000        34
    53.2200        28
    53.2400        24
    53.2600        32
    53.2800        24
    53.3000        30
    53.3200        24
    53.3400        26
    53.3600        34
    53.3800        36
    53.4000        20
    53.4200        24
    53.4400        20
    53.4600        24
    53.4800        32
    53.5000        34
    53.5200        34
    53.5400        32
    53.5600        24
    53.5800        18
    53.6000        28
    53.6200        26
    53.6400        20
    53.6600        20
    53.6800        16
    53.7000        14
    53.7200        18
    53.7400        20
    53.7600        30
    53.7800        26
    53.8000        34
    53.8200        24
    53.8400        22
    53.8600        26
    53.8800        34
    53.9000        24
    53.9200        20
    53.9400        26
    53.9600        30
    53.9800        18
    54.0000        30
    54.0200        22
    54.0400        30
    54.0600        18
    54.0800        26
    54.1000        26
    54.1200        18
    54.1400        18
    54.1600        28
    54.1800        18
    54.2000        20
    54.2200        20
    54.2400        20
    54.2600        22
    54.2800        24
    54.3000        20
    54.3200        20
    54.3400        30
    54.3600        28
    54.3800        24
    54.4000        16
    54.4200        24
    54.4400        22
    54.4600        20
    54.4800        24
    54.5000        28
    54.5200        24
    54.5400        16
    54.5600        24
    54.5800        30
    54.6000        26
    54.6200        34
    54.6400        34
    54.6600        32
    54.6800        26
    54.7000        36
    54.7200        32
    54.7400        46
    54.7600        34
    54.7800        44
    54.8000        48
    54.8200        42
    54.8400        38
    54.8600        44
    54.8800        40
    54.9000        30
    54.9200        26
    54.9400        32
    54.9600        30
    54.9800        36
    55.0000        28
    55.0200        26
    55.0400        16
    55.0600        28
    55.0800        18
    55.1000        30
    55.1200        42
    55.1400        16
    55.1600        18
    55.1800        42
    55.2000        30
    55.2200        42
    55.2400        26
    55.2600        30
    55.2800        40
    55.3000        48
    55.3200        40
    55.3400        40
    55.3600        28
    55.3800        66
    55.4000        52
    55.4200        84
    55.4400        76
    55.4600       116
    55.4800       112
    55.5000       156
    55.5200       194
    55.5400       208
    55.5600       256
    55.5800       262
    55.6000       272
    55.6200       254
    55.6400       218
    55.6600       216
    55.6800       196
    55.7000       172
    55.7200       158
    55.7400       172
    55.7600       168
    55.7800       128
    55.8000       124
    55.8200       112
    55.8400       102
    55.8600        70
    55.8800        78
    55.9000        66
    55.9200        60
    55.9400        48
    55.9600        48
    55.9800        48
    56.0000        56
    56.0200        44
    56.0400        46
    56.0600        36
    56.0800        34
    56.1000        38
    56.1200        28
    56.1400        40
    56.1600        30
    56.1800        30
    56.2000        32
    56.2200        34
    56.2400        28
    56.2600        28
    56.2800        20
    56.3000        24
    56.3200        24
    56.3400        20
    56.3600        24
    56.3800        26
    56.4000        34
    56.4200        24
    56.4400        26
    56.4600        32
    56.4800        34
    56.5000        16
    56.5200        16
    56.5400        30
    56.5600        26
    56.5800        14
    56.6000        28
    56.6200        32
    56.6400        30
    56.6600        26
    56.6800        20
    56.7000        34
    56.7200        26
    56.7400        38
    56.7600        24
    56.7800        26
    56.8000        22
    56.8200        18
    56.8400        38
    56.8600        24
    56.8800        26
    56.9000        32
    56.9200        24
    56.9400        28
    56.9600        26
    56.9800        22
    57.0000        24
    57.0200        28
    57.0400        26
    57.0600        26
    57.0800        24
    57.1000        20
    57.1200        38
    57.1400        22
    57.1600        30
    57.1800        16
    57.2000        20
    57.2200        38
    57.2400        24
    57.2600        28
    57.2800        24
    57.3000        34
    57.3200        28
    57.3400        32
    57.3600        38
    57.3800        34
    57.4000        32
    57.4200        26
    57.4400        36
    57.4600        40
    57.4800        44
    57.5000        50
    57.5200        52
    57.5400        56
    57.5600        56
    57.5800        66
    57.6000        72
    57.6200        72
    57.6400        62
    57.6600        72
    57.6800        82
    57.7000        76
    57.7200        72
    57.7400        72
    57.7600        54
    57.7800        58
    57.8000        54
    57.8200        50
    57.8400        52
    57.8600        50
    57.8800        48
    57.9000        38
    57.9200        34
    57.9400        30
    57.9600        26
    57.9800        36
    58.0000        24
    58.0200        26
    58.0400        22
    58.0600        26
    58.0800        32
    58.1000        32
    58.1200        24
    58.1400        18
    58.1600        28
    58.1800        40
    58.2000        32
    58.2200        14
    58.2400        38
    58.2600        28
    58.2800        36
    58.3000        34
    58.3200        34
    58.3400        22
    58.3600        26
    58.3800        38
    58.4000        26
    58.4200        36
    58.4400        40
    58.4600        32
    58.4800        34
    58.5000        30
    58.5200        38
    58.5400        28
    58.5600        38
    58.5800        44
    58.6000        32
    58.6200        58
    58.6400        50
    58.6600        56
    58.6800        68
    58.7000        70
    58.7200        86
    58.7400        90
    58.7600       114
    58.7800       130
    58.8000       150
    58.8200       174
    58.8400       174
    58.8600       198
    58.8800       192
    58.9000       188
    58.9200       198
    58.9400       184
    58.9600       190
    58.9800       168
    59.0000       160
    59.0200       142
    59.0400       134
    59.0600       120
    59.0800       114
    59.1000        96
    59.1200        74
    59.1400        78
    59.1600        94
    59.1800        76
    59.2000        52
    59.2200        42
    59.2400        50
    59.2600        68
    59.2800        56
    59.3000        40
    59.3200        56
    59.3400        44
    59.3600        34
    59.3800        34
    59.4000        58
    59.4200        38
    59.4400        42
    59.4600        38
    59.4800        38
    59.5000        40
    59.5200        42
    59.5400        50
    59.5600        46
    59.5800        40
    59.6000        46
    59.6200        28
    59.6400        42
    59.6600        32
    59.6800        32
    59.7000        40
    59.7200        38
    59.7400        32
    59.7600        46
    59.7800        36
    59.8000        42
    59.8200        30
    59.8400        32
    59.8600        38
    59.8800        38
    59.9000        38
    59.9200        44
    59.9400        28
    59.9600        40
    59.9800        20
    60.0000        32
    60.0200        22
    60.0400        20
    60.0600        44
    60.0800        24
    60.1000        26
    60.1200        30
    60.1400        30
    60.1600        28
    60.1800        40
    60.2000        36
    60.2200        30
    60.2400        28
    60.2600        34
    60.2800        28
    60.3000        32
    60.3200        34
    60.3400        44
    60.3600        22
    60.3800        30
    60.4000        36
    60.4200        44
    60.4400        40
    60.4600        40
    60.4800        54
    60.5000        52
    60.5200        56
    60.5400        58
    60.5600        74
    60.5800        62
    60.6000        64
    60.6200        60
    60.6400        70
    60.6600        62
    60.6800        60
    60.7000        58
    60.7200        34
    60.7400        46
    60.7600        36
    60.7800        44
    60.8000        30
    60.8200        28
    60.8400        36
    60.8600        34
    60.8800        28
    60.9000        36
    60.9200        36
    60.9400        24
    60.9600        36
    60.9800        46
    61.0000        32
    61.0200        38
    61.0400        38
    61.0600        38
    61.0800        36
    61.1000        36
    61.1200        46
    61.1400        50
    61.1600        70
    61.1800        58
    61.2000        54
    61.2200        70
    61.2400        66
    61.2600        64
    61.2800        56
    61.3000        68
    61.3200        66
    61.3400        60
    61.3600        60
    61.3800        56
    61.4000        60
    61.4200        58
    61.4400        52
    61.4600        52
    61.4800        48
    61.5000        58
    61.5200        56
    61.5400        58
    61.5600        32
    61.5800        36
    61.6000        40
    61.6200        48
    61.6400        32
    61.6600        48
    61.6800        48
    61.7000        50
    61.7200        50
    61.7400        46
    61.7600        46
    61.7800        26
    61.8000        48
    61.8200        40
    61.8400        62
    61.8600        60
    61.8800        52
    61.9000        70
    61.9200        72
    61.9400        76
    61.9600       114
    61.9800       120
    62.0000       138
    62.0200       124
    62.0400       168
    62.0600       180
    62.0800       192
    62.1000       208
    62.1200       202
    62.1400       208
    62.1600       192
    62.1800       238
    62.2000       218
    62.2200       170
    62.2400       196
    62.2600       192
    62.2800       188
    62.3000       186
    62.3200       182
    62.3400       166
    62.3600       140
    62.3800       116
    62.4000       134
    62.4200       122
    62.4400       102
    62.4600        92
    62.4800        88
    62.5000        90
    62.5200        80
    62.5400        88
    62.5600        84
    62.5800        82
    62.6000        82
    62.6200        66
    62.6400        90
    62.6600        72
    62.6800        68
    62.7000        88
    62.7200        60
    62.7400        82
    62.7600        60
    62.7800        72
    62.8000        60
    62.8200        60
    62.8400        62
    62.8600        48
    62.8800        52
    62.9000        60
    62.9200        48
    62.9400        44
    62.9600        64
    62.9800        38
    63.0000        64
    63.0200        48
    63.0400        54
    63.0600        56
    63.0800        52
    63.1000        76
    63.1200        50
    63.1400        60
    63.1600        48
    63.1800        66
    63.2000        58
    63.2200        64
    63.2400        62
    63.2600        54
    63.2800        64
    63.3000        60
    63.3200        52
    63.3400        38
    63.3600        50
    63.3800        66
    63.4000        58
    63.4200        54
    63.4400        54
    63.4600        46
    63.4800        62
    63.5000        56
    63.5200        50
    63.5400        50
    63.5600        50
    63.5800        60
    63.6000        42
    63.6200        42
    63.6400        26
    63.6600        36
    63.6800        46
    63.7000        24
    63.7200        36
    63.7400        28
    63.7600        28
    63.7800        22
    63.8000        18
    63.8200        36
    63.8400        40
    63.8600        34
    63.8800        32
    63.9000        18
    63.9200        22
    63.9400        28
    63.9600        30
    63.9800        32
    64.0000        18
    64.0200        24
    64.0400        28
    64.0600        28
    64.0800        24
    64.1000        28
    64.1200        20
    64.1400        20
    64.1600        36
    64.1800        24
    64.2000        30
    64.2200        34
    64.2400        26
    64.2600        28
    64.2800        38
    64.3000        30
    64.3200        18
    64.3400        20
    64.3600        36
    64.3800        18
    64.4000        16
    64.4200        36
    64.4400        20
    64.4600        20
    64.4800        24
    64.5000        22
    64.5200        20
    64.5400        18
    64.5600        18
    64.5800        14
    64.6000        24
    64.6200        18
    64.6400        26
    64.6600        34
    64.6800        30
    64.7000        24
    64.7200        30
    64.7400        24
    64.7600        20
    64.7800        24
    64.8000        24
    64.8200        30
    64.8400        28
    64.8600        16
    64.8800        26
    64.9000        22
    64.9200        16
    64.9400        20
    64.9600        30
    64.9800        24
    65.0000        24
