/////////////////////////////////////////////////////////////////////////////////
/// Profile Data Ascii Dump (XRD)                                             ///
/////////////////////////////////////////////////////////////////////////////////

  Group     : Swayze
  Data      : GDS819
  File Name : GDS819.RAW

# Profile Datafile
          comment             = Palygorskite 
          date & time         = 08-04-01 05:46:03 

# Measurement Condition
    X-ray tube
          target              = Cu 
          voltage             = 40.0 (kV)
          current             = 30.0 (mA)
    Slits
          divergence slit     = 2.00000 (deg) 
          scatter slit        = 2.00000 (deg) 
          receiving slit      = 0.15000 (mm)  
    Scanning
          drive axis          = Theta-2Theta 
          scan range          =    4.000 -   65.000 
          scan mode           = Continuous Scan 
          scan speed          =   2.0000 (deg/min) 
          sampling pitch      =   0.0200 (deg) 
          preset time         =   0.60 (sec) 

# Data      [ Total No. = 3051 ]
  <2Theta>   <   I   >
     4.0000       290
     4.0200       290
     4.0400       260
     4.0600       284
     4.0800       272
     4.1000       262
     4.1200       254
     4.1400       270
     4.1600       268
     4.1800       240
     4.2000       264
     4.2200       278
     4.2400       276
     4.2600       278
     4.2800       278
     4.3000       256
     4.3200       258
     4.3400       252
     4.3600       244
     4.3800       280
     4.4000       254
     4.4200       216
     4.4400       234
     4.4600       248
     4.4800       238
     4.5000       232
     4.5200       252
     4.5400       230
     4.5600       276
     4.5800       230
     4.6000       240
     4.6200       238
     4.6400       222
     4.6600       226
     4.6800       230
     4.7000       268
     4.7200       218
     4.7400       238
     4.7600       250
     4.7800       236
     4.8000       246
     4.8200       250
     4.8400       230
     4.8600       250
     4.8800       232
     4.9000       258
     4.9200       246
     4.9400       234
     4.9600       232
     4.9800       224
     5.0000       238
     5.0200       216
     5.0400       220
     5.0600       218
     5.0800       236
     5.1000       216
     5.1200       274
     5.1400       220
     5.1600       266
     5.1800       208
     5.2000       238
     5.2200       236
     5.2400       232
     5.2600       240
     5.2800       244
     5.3000       238
     5.3200       242
     5.3400       208
     5.3600       218
     5.3800       236
     5.4000       236
     5.4200       228
     5.4400       212
     5.4600       186
     5.4800       254
     5.5000       234
     5.5200       240
     5.5400       238
     5.5600       224
     5.5800       236
     5.6000       226
     5.6200       232
     5.6400       260
     5.6600       290
     5.6800       244
     5.7000       216
     5.7200       226
     5.7400       238
     5.7600       256
     5.7800       224
     5.8000       236
     5.8200       258
     5.8400       200
     5.8600       252
     5.8800       232
     5.9000       206
     5.9200       230
     5.9400       260
     5.9600       254
     5.9800       264
     6.0000       224
     6.0200       246
     6.0400       266
     6.0600       244
     6.0800       226
     6.1000       212
     6.1200       232
     6.1400       210
     6.1600       280
     6.1800       246
     6.2000       246
     6.2200       230
     6.2400       244
     6.2600       256
     6.2800       242
     6.3000       246
     6.3200       254
     6.3400       236
     6.3600       232
     6.3800       242
     6.4000       248
     6.4200       238
     6.4400       234
     6.4600       258
     6.4800       226
     6.5000       246
     6.5200       254
     6.5400       254
     6.5600       236
     6.5800       254
     6.6000       258
     6.6200       222
     6.6400       254
     6.6600       226
     6.6800       240
     6.7000       250
     6.7200       234
     6.7400       224
     6.7600       256
     6.7800       256
     6.8000       232
     6.8200       238
     6.8400       256
     6.8600       248
     6.8800       216
     6.9000       254
     6.9200       250
     6.9400       262
     6.9600       254
     6.9800       238
     7.0000       236
     7.0200       220
     7.0400       262
     7.0600       228
     7.0800       228
     7.1000       250
     7.1200       216
     7.1400       234
     7.1600       250
     7.1800       286
     7.2000       248
     7.2200       230
     7.2400       244
     7.2600       224
     7.2800       218
     7.3000       232
     7.3200       262
     7.3400       278
     7.3600       218
     7.3800       266
     7.4000       254
     7.4200       290
     7.4400       278
     7.4600       228
     7.4800       248
     7.5000       268
     7.5200       260
     7.5400       282
     7.5600       266
     7.5800       290
     7.6000       294
     7.6200       260
     7.6400       282
     7.6600       298
     7.6800       314
     7.7000       314
     7.7200       340
     7.7400       294
     7.7600       330
     7.7800       366
     7.8000       362
     7.8200       346
     7.8400       350
     7.8600       382
     7.8800       406
     7.9000       364
     7.9200       408
     7.9400       360
     7.9600       408
     7.9800       442
     8.0000       470
     8.0200       476
     8.0400       510
     8.0600       514
     8.0800       600
     8.1000       544
     8.1200       596
     8.1400       646
     8.1600       644
     8.1800       728
     8.2000       754
     8.2200       820
     8.2400       898
     8.2600       916
     8.2800       942
     8.3000       922
     8.3200      1074
     8.3400      1056
     8.3600      1034
     8.3800      1082
     8.4000      1010
     8.4200      1008
     8.4400       904
     8.4600       904
     8.4800       884
     8.5000       838
     8.5200       792
     8.5400       742
     8.5600       658
     8.5800       670
     8.6000       558
     8.6200       514
     8.6400       490
     8.6600       414
     8.6800       362
     8.7000       366
     8.7200       294
     8.7400       272
     8.7600       272
     8.7800       244
     8.8000       228
     8.8200       214
     8.8400       174
     8.8600       214
     8.8800       188
     8.9000       188
     8.9200       192
     8.9400       158
     8.9600       182
     8.9800       160
     9.0000       170
     9.0200       164
     9.0400       148
     9.0600       152
     9.0800       154
     9.1000       140
     9.1200       150
     9.1400       142
     9.1600       134
     9.1800       126
     9.2000       124
     9.2200       124
     9.2400       142
     9.2600       122
     9.2800       128
     9.3000       124
     9.3200       136
     9.3400       136
     9.3600       148
     9.3800       124
     9.4000       122
     9.4200       134
     9.4400       132
     9.4600       138
     9.4800       150
     9.5000       130
     9.5200       144
     9.5400       136
     9.5600       132
     9.5800       136
     9.6000       126
     9.6200       100
     9.6400       126
     9.6600       128
     9.6800       120
     9.7000       126
     9.7200       120
     9.7400       136
     9.7600       114
     9.7800       116
     9.8000       126
     9.8200       132
     9.8400       130
     9.8600       108
     9.8800       112
     9.9000       104
     9.9200       122
     9.9400       138
     9.9600       122
     9.9800       128
    10.0000       114
    10.0200       132
    10.0400       126
    10.0600       114
    10.0800       120
    10.1000       128
    10.1200       126
    10.1400        96
    10.1600       114
    10.1800       112
    10.2000        96
    10.2200       124
    10.2400       118
    10.2600       108
    10.2800       110
    10.3000        96
    10.3200       122
    10.3400       104
    10.3600        86
    10.3800       100
    10.4000       124
    10.4200       100
    10.4400        98
    10.4600       122
    10.4800       102
    10.5000       108
    10.5200       110
    10.5400       108
    10.5600       106
    10.5800       102
    10.6000        84
    10.6200       110
    10.6400        94
    10.6600       110
    10.6800        98
    10.7000       114
    10.7200        94
    10.7400       110
    10.7600       116
    10.7800       108
    10.8000        94
    10.8200        98
    10.8400        92
    10.8600        84
    10.8800       106
    10.9000        76
    10.9200        96
    10.9400        78
    10.9600        96
    10.9800        80
    11.0000       102
    11.0200       110
    11.0400       114
    11.0600       102
    11.0800        90
    11.1000        86
    11.1200       112
    11.1400        82
    11.1600        70
    11.1800        84
    11.2000        92
    11.2200        98
    11.2400        94
    11.2600        80
    11.2800       106
    11.3000       104
    11.3200        90
    11.3400        94
    11.3600        92
    11.3800        86
    11.4000        86
    11.4200        94
    11.4400        90
    11.4600        98
    11.4800        92
    11.5000        92
    11.5200       100
    11.5400        96
    11.5600        96
    11.5800       100
    11.6000        88
    11.6200        96
    11.6400        94
    11.6600        98
    11.6800        96
    11.7000        86
    11.7200        96
    11.7400        96
    11.7600        64
    11.7800        90
    11.8000       106
    11.8200        90
    11.8400        88
    11.8600        76
    11.8800        72
    11.9000        92
    11.9200        90
    11.9400        84
    11.9600        74
    11.9800       106
    12.0000       104
    12.0200        90
    12.0400        88
    12.0600        76
    12.0800        92
    12.1000        94
    12.1200        92
    12.1400        80
    12.1600        92
    12.1800        80
    12.2000        86
    12.2200        96
    12.2400       102
    12.2600        76
    12.2800        74
    12.3000        96
    12.3200        78
    12.3400        92
    12.3600        74
    12.3800        72
    12.4000        92
    12.4200        92
    12.4400        92
    12.4600        94
    12.4800        90
    12.5000        78
    12.5200        92
    12.5400        58
    12.5600        80
    12.5800       102
    12.6000        86
    12.6200        76
    12.6400        72
    12.6600        78
    12.6800        86
    12.7000        62
    12.7200        76
    12.7400        78
    12.7600        64
    12.7800        76
    12.8000        78
    12.8200        82
    12.8400        94
    12.8600        94
    12.8800        70
    12.9000        68
    12.9200        74
    12.9400        90
    12.9600        80
    12.9800        78
    13.0000        88
    13.0200       100
    13.0400        94
    13.0600        96
    13.0800        84
    13.1000       100
    13.1200       108
    13.1400        94
    13.1600        88
    13.1800        94
    13.2000        96
    13.2200        98
    13.2400        92
    13.2600        92
    13.2800       114
    13.3000       102
    13.3200       102
    13.3400       134
    13.3600       108
    13.3800       132
    13.4000       126
    13.4200       128
    13.4400       118
    13.4600       104
    13.4800       142
    13.5000       122
    13.5200       120
    13.5400       146
    13.5600       150
    13.5800       152
    13.6000       146
    13.6200       150
    13.6400       170
    13.6600       174
    13.6800       150
    13.7000       154
    13.7200       164
    13.7400       168
    13.7600       160
    13.7800       162
    13.8000       158
    13.8200       146
    13.8400       170
    13.8600       154
    13.8800       124
    13.9000       154
    13.9200       142
    13.9400       140
    13.9600       130
    13.9800       108
    14.0000       112
    14.0200       104
    14.0400       116
    14.0600       102
    14.0800        96
    14.1000        78
    14.1200        86
    14.1400        94
    14.1600        94
    14.1800       104
    14.2000        82
    14.2200        84
    14.2400        80
    14.2600        94
    14.2800        84
    14.3000        98
    14.3200        90
    14.3400        92
    14.3600        86
    14.3800        84
    14.4000        62
    14.4200        72
    14.4400        70
    14.4600        56
    14.4800        78
    14.5000        66
    14.5200        88
    14.5400        74
    14.5600        56
    14.5800        84
    14.6000        74
    14.6200        74
    14.6400        80
    14.6600        70
    14.6800        86
    14.7000        86
    14.7200        66
    14.7400        82
    14.7600        74
    14.7800        74
    14.8000        66
    14.8200        74
    14.8400        58
    14.8600        78
    14.8800        72
    14.9000        60
    14.9200        70
    14.9400        86
    14.9600        64
    14.9800        74
    15.0000        60
    15.0200        66
    15.0400        62
    15.0600        76
    15.0800        68
    15.1000        72
    15.1200        56
    15.1400        54
    15.1600        66
    15.1800        70
    15.2000        68
    15.2200        74
    15.2400        56
    15.2600        64
    15.2800        66
    15.3000        72
    15.3200        60
    15.3400        76
    15.3600        70
    15.3800        56
    15.4000        74
    15.4200        64
    15.4400        72
    15.4600        70
    15.4800        78
    15.5000        58
    15.5200        74
    15.5400        72
    15.5600        66
    15.5800        64
    15.6000        80
    15.6200        72
    15.6400        72
    15.6600        66
    15.6800        58
    15.7000        72
    15.7200        70
    15.7400        54
    15.7600        60
    15.7800        66
    15.8000        52
    15.8200        72
    15.8400        70
    15.8600        86
    15.8800        66
    15.9000        80
    15.9200        80
    15.9400        94
    15.9600        78
    15.9800        72
    16.0000        68
    16.0200        92
    16.0400        64
    16.0600        86
    16.0800        96
    16.1000        84
    16.1200        98
    16.1400       102
    16.1600       104
    16.1800       100
    16.2000       126
    16.2200       132
    16.2400       140
    16.2600       134
    16.2800       132
    16.3000       136
    16.3200       146
    16.3400       122
    16.3600       134
    16.3800       156
    16.4000       124
    16.4200       112
    16.4400       138
    16.4600       140
    16.4800       120
    16.5000       128
    16.5200       134
    16.5400        96
    16.5600        96
    16.5800        64
    16.6000        84
    16.6200        96
    16.6400        76
    16.6600        86
    16.6800        64
    16.7000        76
    16.7200        94
    16.7400        70
    16.7600        70
    16.7800        70
    16.8000        68
    16.8200        78
    16.8400        74
    16.8600        60
    16.8800        84
    16.9000        78
    16.9200        86
    16.9400        72
    16.9600        68
    16.9800        60
    17.0000        64
    17.0200        68
    17.0400        70
    17.0600        72
    17.0800        82
    17.1000        76
    17.1200        60
    17.1400        56
    17.1600        82
    17.1800        64
    17.2000        76
    17.2200        74
    17.2400        72
    17.2600        52
    17.2800        70
    17.3000        60
    17.3200        70
    17.3400        70
    17.3600        58
    17.3800        72
    17.4000        58
    17.4200        90
    17.4400        70
    17.4600        60
    17.4800        64
    17.5000        52
    17.5200        70
    17.5400        80
    17.5600        62
    17.5800        72
    17.6000        62
    17.6200        60
    17.6400        54
    17.6600        66
    17.6800        56
    17.7000        64
    17.7200        70
    17.7400        56
    17.7600        70
    17.7800        66
    17.8000        66
    17.8200        64
    17.8400        60
    17.8600        60
    17.8800        60
    17.9000        52
    17.9200        66
    17.9400        56
    17.9600        52
    17.9800        58
    18.0000        70
    18.0200        62
    18.0400        58
    18.0600        70
    18.0800        66
    18.1000        74
    18.1200        68
    18.1400        64
    18.1600        72
    18.1800        60
    18.2000        58
    18.2200        56
    18.2400        56
    18.2600        72
    18.2800        64
    18.3000        54
    18.3200        68
    18.3400        60
    18.3600        66
    18.3800        70
    18.4000        70
    18.4200        70
    18.4400        60
    18.4600        66
    18.4800        70
    18.5000        64
    18.5200        64
    18.5400        60
    18.5600        58
    18.5800        58
    18.6000        64
    18.6200        74
    18.6400        62
    18.6600        54
    18.6800        70
    18.7000        68
    18.7200        54
    18.7400        62
    18.7600        62
    18.7800        66
    18.8000        60
    18.8200        86
    18.8400        52
    18.8600        74
    18.8800        78
    18.9000        84
    18.9200        74
    18.9400        54
    18.9600        70
    18.9800        68
    19.0000        58
    19.0200        66
    19.0400        68
    19.0600        62
    19.0800        76
    19.1000        64
    19.1200        62
    19.1400        58
    19.1600        70
    19.1800        70
    19.2000        58
    19.2200        76
    19.2400        68
    19.2600        96
    19.2800        68
    19.3000        54
    19.3200        94
    19.3400        70
    19.3600        70
    19.3800        76
    19.4000        72
    19.4200        80
    19.4400        76
    19.4600       104
    19.4800       108
    19.5000       114
    19.5200       108
    19.5400       106
    19.5600       108
    19.5800       126
    19.6000       106
    19.6200       132
    19.6400       136
    19.6600       140
    19.6800       142
    19.7000       150
    19.7200       188
    19.7400       212
    19.7600       190
    19.7800       214
    19.8000       236
    19.8200       222
    19.8400       244
    19.8600       224
    19.8800       248
    19.9000       250
    19.9200       216
    19.9400       202
    19.9600       180
    19.9800       168
    20.0000       158
    20.0200       132
    20.0400       118
    20.0600       136
    20.0800       138
    20.1000       108
    20.1200        86
    20.1400       126
    20.1600       100
    20.1800        86
    20.2000        76
    20.2200        80
    20.2400        94
    20.2600        96
    20.2800        96
    20.3000        94
    20.3200       104
    20.3400        90
    20.3600        86
    20.3800        94
    20.4000       104
    20.4200        94
    20.4400       106
    20.4600       114
    20.4800       108
    20.5000       108
    20.5200       138
    20.5400       100
    20.5600       146
    20.5800       144
    20.6000       142
    20.6200       150
    20.6400       168
    20.6600       178
    20.6800       196
    20.7000       184
    20.7200       202
    20.7400       188
    20.7600       188
    20.7800       192
    20.8000       192
    20.8200       224
    20.8400       210
    20.8600       178
    20.8800       162
    20.9000       158
    20.9200       132
    20.9400       148
    20.9600       116
    20.9800       110
    21.0000       106
    21.0200        90
    21.0400        90
    21.0600        98
    21.0800        96
    21.1000       100
    21.1200        76
    21.1400        92
    21.1600        72
    21.1800        70
    21.2000        72
    21.2200        70
    21.2400        62
    21.2600        56
    21.2800        82
    21.3000        50
    21.3200        72
    21.3400        80
    21.3600        72
    21.3800        82
    21.4000        80
    21.4200        70
    21.4400        58
    21.4600        56
    21.4800        48
    21.5000        48
    21.5200        52
    21.5400        68
    21.5600        50
    21.5800        52
    21.6000        60
    21.6200        54
    21.6400        64
    21.6600        62
    21.6800        60
    21.7000        80
    21.7200        52
    21.7400        48
    21.7600        56
    21.7800        62
    21.8000        50
    21.8200        58
    21.8400        42
    21.8600        64
    21.8800        52
    21.9000        54
    21.9200        58
    21.9400        46
    21.9600        64
    21.9800        54
    22.0000        70
    22.0200        70
    22.0400        58
    22.0600        46
    22.0800        70
    22.1000        66
    22.1200        48
    22.1400        54
    22.1600        42
    22.1800        50
    22.2000        42
    22.2200        62
    22.2400        50
    22.2600        54
    22.2800        60
    22.3000        46
    22.3200        50
    22.3400        58
    22.3600        44
    22.3800        70
    22.4000        50
    22.4200        62
    22.4400        48
    22.4600        48
    22.4800        48
    22.5000        70
    22.5200        56
    22.5400        60
    22.5600        50
    22.5800        50
    22.6000        52
    22.6200        66
    22.6400        66
    22.6600        52
    22.6800        66
    22.7000        48
    22.7200        56
    22.7400        56
    22.7600        60
    22.7800        68
    22.8000        64
    22.8200        66
    22.8400        54
    22.8600        44
    22.8800        56
    22.9000        60
    22.9200        62
    22.9400        48
    22.9600        46
    22.9800        58
    23.0000        64
    23.0200        58
    23.0400        68
    23.0600        62
    23.0800        42
    23.1000        48
    23.1200        56
    23.1400        50
    23.1600        56
    23.1800        60
    23.2000        70
    23.2200        54
    23.2400        68
    23.2600        62
    23.2800        62
    23.3000        64
    23.3200        46
    23.3400        60
    23.3600        72
    23.3800        90
    23.4000        64
    23.4200        72
    23.4400        76
    23.4600        94
    23.4800        66
    23.5000        80
    23.5200        78
    23.5400        84
    23.5600        92
    23.5800        98
    23.6000        86
    23.6200        82
    23.6400       110
    23.6600        74
    23.6800        94
    23.7000       106
    23.7200       102
    23.7400       110
    23.7600        94
    23.7800       102
    23.8000       100
    23.8200       112
    23.8400       114
    23.8600       104
    23.8800       108
    23.9000       134
    23.9200       138
    23.9400       144
    23.9600       142
    23.9800       182
    24.0000       162
    24.0200       158
    24.0400       148
    24.0600       142
    24.0800       180
    24.1000       160
    24.1200       168
    24.1400       166
    24.1600       182
    24.1800       148
    24.2000       162
    24.2200       136
    24.2400       136
    24.2600       134
    24.2800       136
    24.3000       146
    24.3200       128
    24.3400       108
    24.3600       114
    24.3800       120
    24.4000       120
    24.4200        96
    24.4400        94
    24.4600        84
    24.4800        82
    24.5000        78
    24.5200        94
    24.5400        88
    24.5600        60
    24.5800        86
    24.6000        84
    24.6200        70
    24.6400        50
    24.6600        68
    24.6800        68
    24.7000        64
    24.7200        52
    24.7400        60
    24.7600        50
    24.7800        62
    24.8000        52
    24.8200        66
    24.8400        64
    24.8600        64
    24.8800        60
    24.9000        66
    24.9200        60
    24.9400        44
    24.9600        56
    24.9800        54
    25.0000        68
    25.0200        54
    25.0400        62
    25.0600        54
    25.0800        64
    25.1000        58
    25.1200        64
    25.1400        36
    25.1600        52
    25.1800        70
    25.2000        56
    25.2200        58
    25.2400        60
    25.2600        68
    25.2800        68
    25.3000        52
    25.3200        68
    25.3400        72
    25.3600        70
    25.3800        64
    25.4000        76
    25.4200        60
    25.4400        48
    25.4600        52
    25.4800        56
    25.5000        70
    25.5200        78
    25.5400        74
    25.5600        60
    25.5800        62
    25.6000        52
    25.6200        62
    25.6400        64
    25.6600        66
    25.6800        64
    25.7000        54
    25.7200        46
    25.7400        62
    25.7600        70
    25.7800        78
    25.8000        78
    25.8200        72
    25.8400        68
    25.8600        60
    25.8800        80
    25.9000        66
    25.9200        76
    25.9400        68
    25.9600        70
    25.9800        92
    26.0000        62
    26.0200        72
    26.0400        84
    26.0600        60
    26.0800        58
    26.1000        90
    26.1200        70
    26.1400        88
    26.1600        72
    26.1800       100
    26.2000        70
    26.2200        94
    26.2400        72
    26.2600        90
    26.2800        98
    26.3000       102
    26.3200       100
    26.3400       114
    26.3600        86
    26.3800        98
    26.4000        82
    26.4200        92
    26.4400        96
    26.4600       108
    26.4800        92
    26.5000       112
    26.5200       106
    26.5400       106
    26.5600        94
    26.5800        92
    26.6000       112
    26.6200        88
    26.6400       100
    26.6600        90
    26.6800        90
    26.7000        82
    26.7200        84
    26.7400        72
    26.7600        98
    26.7800        98
    26.8000        70
    26.8200        82
    26.8400       102
    26.8600       100
    26.8800       104
    26.9000        86
    26.9200        82
    26.9400        82
    26.9600       102
    26.9800        94
    27.0000        88
    27.0200        88
    27.0400        94
    27.0600        90
    27.0800       102
    27.1000        98
    27.1200       114
    27.1400       110
    27.1600       112
    27.1800        78
    27.2000       110
    27.2200       106
    27.2400       138
    27.2600       118
    27.2800       110
    27.3000       124
    27.3200       112
    27.3400       110
    27.3600       120
    27.3800       116
    27.4000       128
    27.4200       108
    27.4400       122
    27.4600       128
    27.4800       128
    27.5000       154
    27.5200       106
    27.5400       134
    27.5600       132
    27.5800       150
    27.6000       126
    27.6200       134
    27.6400       128
    27.6600       102
    27.6800       120
    27.7000       126
    27.7200       126
    27.7400       114
    27.7600       126
    27.7800       130
    27.8000       150
    27.8200       146
    27.8400       136
    27.8600       134
    27.8800       140
    27.9000       134
    27.9200       142
    27.9400       144
    27.9600       132
    27.9800       146
    28.0000       134
    28.0200       120
    28.0400       118
    28.0600       120
    28.0800       130
    28.1000       128
    28.1200       116
    28.1400       136
    28.1600       130
    28.1800       112
    28.2000       128
    28.2200       108
    28.2400       128
    28.2600       140
    28.2800       122
    28.3000       122
    28.3200       132
    28.3400       130
    28.3600       118
    28.3800       116
    28.4000       124
    28.4200       106
    28.4400       124
    28.4600       138
    28.4800       120
    28.5000       122
    28.5200       152
    28.5400       148
    28.5600       134
    28.5800       132
    28.6000       144
    28.6200       146
    28.6400       134
    28.6600       144
    28.6800       130
    28.7000       114
    28.7200       158
    28.7400       126
    28.7600       126
    28.7800       112
    28.8000       108
    28.8200       130
    28.8400       128
    28.8600       112
    28.8800        98
    28.9000       104
    28.9200       104
    28.9400        70
    28.9600        86
    28.9800        76
    29.0000        82
    29.0200        74
    29.0400        74
    29.0600        66
    29.0800        60
    29.1000        64
    29.1200        58
    29.1400        78
    29.1600        54
    29.1800        58
    29.2000        46
    29.2200        56
    29.2400        48
    29.2600        60
    29.2800        46
    29.3000        50
    29.3200        62
    29.3400        66
    29.3600        60
    29.3800        56
    29.4000        60
    29.4200        46
    29.4400        54
    29.4600        48
    29.4800        64
    29.5000        40
    29.5200        56
    29.5400        58
    29.5600        62
    29.5800        72
    29.6000        66
    29.6200        50
    29.6400        52
    29.6600        48
    29.6800        48
    29.7000        50
    29.7200        54
    29.7400        48
    29.7600        66
    29.7800        58
    29.8000        40
    29.8200        40
    29.8400        44
    29.8600        58
    29.8800        54
    29.9000        40
    29.9200        40
    29.9400        54
    29.9600        58
    29.9800        42
    30.0000        50
    30.0200        38
    30.0400        48
    30.0600        40
    30.0800        60
    30.1000        40
    30.1200        40
    30.1400        32
    30.1600        64
    30.1800        54
    30.2000        44
    30.2200        46
    30.2400        58
    30.2600        52
    30.2800        46
    30.3000        38
    30.3200        50
    30.3400        42
    30.3600        40
    30.3800        48
    30.4000        58
    30.4200        54
    30.4400        34
    30.4600        48
    30.4800        54
    30.5000        52
    30.5200        46
    30.5400        48
    30.5600        60
    30.5800        52
    30.6000        54
    30.6200        60
    30.6400        54
    30.6600        62
    30.6800        64
    30.7000        42
    30.7200        48
    30.7400        64
    30.7600        54
    30.7800        50
    30.8000        56
    30.8200        60
    30.8400        54
    30.8600        66
    30.8800        54
    30.9000        36
    30.9200        60
    30.9400        40
    30.9600        60
    30.9800        60
    31.0000        56
    31.0200        58
    31.0400        48
    31.0600        48
    31.0800        48
    31.1000        46
    31.1200        40
    31.1400        50
    31.1600        54
    31.1800        62
    31.2000        44
    31.2200        50
    31.2400        54
    31.2600        50
    31.2800        44
    31.3000        38
    31.3200        34
    31.3400        46
    31.3600        40
    31.3800        62
    31.4000        48
    31.4200        48
    31.4400        46
    31.4600        50
    31.4800        38
    31.5000        38
    31.5200        52
    31.5400        54
    31.5600        54
    31.5800        34
    31.6000        34
    31.6200        40
    31.6400        40
    31.6600        30
    31.6800        48
    31.7000        48
    31.7200        38
    31.7400        40
    31.7600        42
    31.7800        22
    31.8000        54
    31.8200        50
    31.8400        30
    31.8600        40
    31.8800        44
    31.9000        52
    31.9200        38
    31.9400        40
    31.9600        46
    31.9800        42
    32.0000        36
    32.0200        34
    32.0400        50
    32.0600        36
    32.0800        36
    32.1000        44
    32.1200        38
    32.1400        38
    32.1600        44
    32.1800        38
    32.2000        52
    32.2200        44
    32.2400        46
    32.2600        42
    32.2800        42
    32.3000        32
    32.3200        34
    32.3400        46
    32.3600        34
    32.3800        34
    32.4000        38
    32.4200        40
    32.4400        40
    32.4600        52
    32.4800        48
    32.5000        52
    32.5200        46
    32.5400        44
    32.5600        50
    32.5800        46
    32.6000        54
    32.6200        40
    32.6400        40
    32.6600        48
    32.6800        48
    32.7000        32
    32.7200        42
    32.7400        46
    32.7600        48
    32.7800        50
    32.8000        54
    32.8200        56
    32.8400        40
    32.8600        56
    32.8800        54
    32.9000        64
    32.9200        44
    32.9400        62
    32.9600        52
    32.9800        50
    33.0000        58
    33.0200        62
    33.0400        60
    33.0600        68
    33.0800        58
    33.1000        64
    33.1200        68
    33.1400        84
    33.1600        80
    33.1800        90
    33.2000        78
    33.2200       106
    33.2400        90
    33.2600        90
    33.2800       110
    33.3000        92
    33.3200       126
    33.3400       106
    33.3600       100
    33.3800       118
    33.4000        96
    33.4200       112
    33.4400       104
    33.4600       106
    33.4800        96
    33.5000       102
    33.5200        82
    33.5400        88
    33.5600       104
    33.5800        88
    33.6000        76
    33.6200        84
    33.6400        74
    33.6600        96
    33.6800        68
    33.7000        70
    33.7200        78
    33.7400        84
    33.7600        64
    33.7800        76
    33.8000        84
    33.8200        66
    33.8400        84
    33.8600        84
    33.8800        78
    33.9000        66
    33.9200        74
    33.9400        78
    33.9600        76
    33.9800        74
    34.0000        76
    34.0200        90
    34.0400        78
    34.0600        84
    34.0800        78
    34.1000        98
    34.1200        90
    34.1400        90
    34.1600        86
    34.1800        78
    34.2000        94
    34.2200        76
    34.2400        94
    34.2600       108
    34.2800       104
    34.3000        88
    34.3200        94
    34.3400        96
    34.3600        92
    34.3800       108
    34.4000        84
    34.4200        92
    34.4400        84
    34.4600        98
    34.4800       124
    34.5000        98
    34.5200       112
    34.5400        94
    34.5600       130
    34.5800       100
    34.6000       124
    34.6200       110
    34.6400        88
    34.6600       112
    34.6800       120
    34.7000       116
    34.7200        96
    34.7400       108
    34.7600       104
    34.7800       116
    34.8000       108
    34.8200       126
    34.8400       106
    34.8600       128
    34.8800       116
    34.9000       132
    34.9200       100
    34.9400       104
    34.9600       120
    34.9800       114
    35.0000       128
    35.0200       118
    35.0400       138
    35.0600       112
    35.0800       120
    35.1000       158
    35.1200       136
    35.1400       132
    35.1600       160
    35.1800       158
    35.2000       162
    35.2200       184
    35.2400       222
    35.2600       174
    35.2800       190
    35.3000       200
    35.3200       192
    35.3400       186
    35.3600       186
    35.3800       212
    35.4000       198
    35.4200       164
    35.4400       146
    35.4600       168
    35.4800       144
    35.5000       140
    35.5200       120
    35.5400       120
    35.5600       102
    35.5800        94
    35.6000        90
    35.6200        84
    35.6400        78
    35.6600        84
    35.6800        82
    35.7000        66
    35.7200        64
    35.7400        74
    35.7600        48
    35.7800        58
    35.8000        62
    35.8200        58
    35.8400        50
    35.8600        50
    35.8800        54
    35.9000        52
    35.9200        60
    35.9400        56
    35.9600        42
    35.9800        48
    36.0000        46
    36.0200        50
    36.0400        58
    36.0600        44
    36.0800        44
    36.1000        62
    36.1200        52
    36.1400        68
    36.1600        50
    36.1800        42
    36.2000        54
    36.2200        64
    36.2400        36
    36.2600        64
    36.2800        54
    36.3000        46
    36.3200        48
    36.3400        36
    36.3600        56
    36.3800        54
    36.4000        58
    36.4200        38
    36.4400        68
    36.4600        44
    36.4800        60
    36.5000        62
    36.5200        46
    36.5400        42
    36.5600        68
    36.5800        58
    36.6000        66
    36.6200        68
    36.6400        84
    36.6600        76
    36.6800        78
    36.7000        74
    36.7200        62
    36.7400        68
    36.7600        68
    36.7800        62
    36.8000        64
    36.8200        68
    36.8400        84
    36.8600        66
    36.8800        76
    36.9000        60
    36.9200        88
    36.9400        70
    36.9600        62
    36.9800        52
    37.0000        88
    37.0200        68
    37.0400        70
    37.0600        62
    37.0800        68
    37.1000        78
    37.1200        78
    37.1400        78
    37.1600        62
    37.1800        66
    37.2000        92
    37.2200        86
    37.2400        96
    37.2600        78
    37.2800        62
    37.3000        82
    37.3200        66
    37.3400        74
    37.3600        68
    37.3800        56
    37.4000        60
    37.4200        70
    37.4400        68
    37.4600        54
    37.4800        52
    37.5000        54
    37.5200        54
    37.5400        70
    37.5600        56
    37.5800        70
    37.6000        54
    37.6200        50
    37.6400        48
    37.6600        72
    37.6800        44
    37.7000        38
    37.7200        52
    37.7400        38
    37.7600        58
    37.7800        42
    37.8000        48
    37.8200        52
    37.8400        40
    37.8600        56
    37.8800        44
    37.9000        44
    37.9200        30
    37.9400        56
    37.9600        44
    37.9800        46
    38.0000        38
    38.0200        34
    38.0400        56
    38.0600        56
    38.0800        58
    38.1000        38
    38.1200        42
    38.1400        46
    38.1600        42
    38.1800        44
    38.2000        50
    38.2200        50
    38.2400        42
    38.2600        46
    38.2800        46
    38.3000        48
    38.3200        48
    38.3400        40
    38.3600        46
    38.3800        52
    38.4000        42
    38.4200        34
    38.4400        38
    38.4600        38
    38.4800        40
    38.5000        36
    38.5200        36
    38.5400        34
    38.5600        30
    38.5800        42
    38.6000        34
    38.6200        46
    38.6400        40
    38.6600        36
    38.6800        34
    38.7000        36
    38.7200        40
    38.7400        32
    38.7600        36
    38.7800        34
    38.8000        36
    38.8200        34
    38.8400        34
    38.8600        26
    38.8800        36
    38.9000        38
    38.9200        42
    38.9400        32
    38.9600        38
    38.9800        28
    39.0000        44
    39.0200        54
    39.0400        44
    39.0600        52
    39.0800        26
    39.1000        44
    39.1200        52
    39.1400        44
    39.1600        40
    39.1800        50
    39.2000        20
    39.2200        40
    39.2400        36
    39.2600        52
    39.2800        34
    39.3000        36
    39.3200        32
    39.3400        36
    39.3600        38
    39.3800        36
    39.4000        30
    39.4200        50
    39.4400        50
    39.4600        44
    39.4800        42
    39.5000        38
    39.5200        40
    39.5400        28
    39.5600        40
    39.5800        52
    39.6000        40
    39.6200        46
    39.6400        52
    39.6600        32
    39.6800        50
    39.7000        52
    39.7200        54
    39.7400        52
    39.7600        28
    39.7800        48
    39.8000        52
    39.8200        64
    39.8400        46
    39.8600        46
    39.8800        52
    39.9000        62
    39.9200        56
    39.9400        66
    39.9600        48
    39.9800        54
    40.0000        48
    40.0200        64
    40.0400        60
    40.0600        58
    40.0800        54
    40.1000        56
    40.1200        70
    40.1400        48
    40.1600        66
    40.1800        68
    40.2000        58
    40.2200        46
    40.2400        54
    40.2600        76
    40.2800        88
    40.3000        74
    40.3200        64
    40.3400        64
    40.3600        70
    40.3800        60
    40.4000        82
    40.4200        78
    40.4400        80
    40.4600        86
    40.4800        74
    40.5000        76
    40.5200        56
    40.5400        62
    40.5600        66
    40.5800        56
    40.6000        82
    40.6200        78
    40.6400        42
    40.6600        64
    40.6800        48
    40.7000        64
    40.7200        76
    40.7400        62
    40.7600        60
    40.7800        70
    40.8000        52
    40.8200        68
    40.8400        66
    40.8600        64
    40.8800        56
    40.9000        54
    40.9200        60
    40.9400        48
    40.9600        50
    40.9800        58
    41.0000        58
    41.0200        58
    41.0400        56
    41.0600        52
    41.0800        64
    41.1000        50
    41.1200        48
    41.1400        48
    41.1600        42
    41.1800        54
    41.2000        44
    41.2200        48
    41.2400        54
    41.2600        52
    41.2800        40
    41.3000        44
    41.3200        42
    41.3400        50
    41.3600        50
    41.3800        46
    41.4000        44
    41.4200        38
    41.4400        56
    41.4600        40
    41.4800        54
    41.5000        56
    41.5200        56
    41.5400        48
    41.5600        48
    41.5800        64
    41.6000        54
    41.6200        60
    41.6400        68
    41.6600        62
    41.6800        66
    41.7000        58
    41.7200        68
    41.7400        60
    41.7600        64
    41.7800        60
    41.8000        60
    41.8200        62
    41.8400        64
    41.8600        66
    41.8800        56
    41.9000        54
    41.9200        54
    41.9400        52
    41.9600        54
    41.9800        54
    42.0000        48
    42.0200        46
    42.0400        50
    42.0600        68
    42.0800        46
    42.1000        56
    42.1200        42
    42.1400        40
    42.1600        56
    42.1800        54
    42.2000        58
    42.2200        34
    42.2400        42
    42.2600        46
    42.2800        36
    42.3000        54
    42.3200        52
    42.3400        42
    42.3600        52
    42.3800        38
    42.4000        54
    42.4200        50
    42.4400        46
    42.4600        52
    42.4800        48
    42.5000        44
    42.5200        48
    42.5400        38
    42.5600        48
    42.5800        52
    42.6000        48
    42.6200        62
    42.6400        42
    42.6600        42
    42.6800        50
    42.7000        42
    42.7200        44
    42.7400        42
    42.7600        44
    42.7800        52
    42.8000        44
    42.8200        50
    42.8400        30
    42.8600        36
    42.8800        50
    42.9000        62
    42.9200        48
    42.9400        44
    42.9600        32
    42.9800        32
    43.0000        46
    43.0200        40
    43.0400        46
    43.0600        40
    43.0800        34
    43.1000        48
    43.1200        38
    43.1400        50
    43.1600        34
    43.1800        38
    43.2000        38
    43.2200        42
    43.2400        40
    43.2600        46
    43.2800        32
    43.3000        34
    43.3200        34
    43.3400        42
    43.3600        34
    43.3800        38
    43.4000        46
    43.4200        46
    43.4400        26
    43.4600        38
    43.4800        26
    43.5000        26
    43.5200        34
    43.5400        40
    43.5600        42
    43.5800        40
    43.6000        30
    43.6200        48
    43.6400        26
    43.6600        42
    43.6800        42
    43.7000        36
    43.7200        38
    43.7400        46
    43.7600        42
    43.7800        30
    43.8000        48
    43.8200        38
    43.8400        36
    43.8600        40
    43.8800        50
    43.9000        46
    43.9200        38
    43.9400        38
    43.9600        38
    43.9800        40
    44.0000        36
    44.0200        36
    44.0400        36
    44.0600        42
    44.0800        36
    44.1000        40
    44.1200        40
    44.1400        46
    44.1600        42
    44.1800        46
    44.2000        42
    44.2200        42
    44.2400        48
    44.2600        48
    44.2800        58
    44.3000        50
    44.3200        42
    44.3400        40
    44.3600        52
    44.3800        56
    44.4000        56
    44.4200        60
    44.4400        48
    44.4600        64
    44.4800        52
    44.5000        72
    44.5200        50
    44.5400        58
    44.5600        44
    44.5800        50
    44.6000        58
    44.6200        60
    44.6400        74
    44.6600        58
    44.6800        46
    44.7000        60
    44.7200        52
    44.7400        58
    44.7600        62
    44.7800        66
    44.8000        60
    44.8200        64
    44.8400        60
    44.8600        44
    44.8800        48
    44.9000        58
    44.9200        54
    44.9400        40
    44.9600        78
    44.9800        48
    45.0000        50
    45.0200        38
    45.0400        56
    45.0600        42
    45.0800        56
    45.1000        48
    45.1200        52
    45.1400        56
    45.1600        40
    45.1800        48
    45.2000        48
    45.2200        38
    45.2400        36
    45.2600        38
    45.2800        44
    45.3000        52
    45.3200        36
    45.3400        32
    45.3600        34
    45.3800        32
    45.4000        34
    45.4200        22
    45.4400        44
    45.4600        48
    45.4800        40
    45.5000        38
    45.5200        46
    45.5400        38
    45.5600        40
    45.5800        32
    45.6000        36
    45.6200        24
    45.6400        32
    45.6600        36
    45.6800        44
    45.7000        36
    45.7200        36
    45.7400        22
    45.7600        28
    45.7800        38
    45.8000        26
    45.8200        28
    45.8400        28
    45.8600        30
    45.8800        32
    45.9000        28
    45.9200        44
    45.9400        26
    45.9600        36
    45.9800        40
    46.0000        32
    46.0200        28
    46.0400        34
    46.0600        30
    46.0800        40
    46.1000        46
    46.1200        40
    46.1400        32
    46.1600        30
    46.1800        32
    46.2000        30
    46.2200        38
    46.2400        46
    46.2600        36
    46.2800        40
    46.3000        38
    46.3200        26
    46.3400        30
    46.3600        50
    46.3800        38
    46.4000        26
    46.4200        36
    46.4400        30
    46.4600        42
    46.4800        34
    46.5000        32
    46.5200        30
    46.5400        30
    46.5600        44
    46.5800        50
    46.6000        46
    46.6200        44
    46.6400        38
    46.6600        32
    46.6800        26
    46.7000        42
    46.7200        42
    46.7400        36
    46.7600        30
    46.7800        34
    46.8000        40
    46.8200        30
    46.8400        32
    46.8600        30
    46.8800        30
    46.9000        36
    46.9200        32
    46.9400        36
    46.9600        28
    46.9800        34
    47.0000        40
    47.0200        40
    47.0400        32
    47.0600        48
    47.0800        36
    47.1000        40
    47.1200        24
    47.1400        26
    47.1600        46
    47.1800        32
    47.2000        30
    47.2200        36
    47.2400        40
    47.2600        32
    47.2800        32
    47.3000        36
    47.3200        30
    47.3400        30
    47.3600        32
    47.3800        28
    47.4000        32
    47.4200        26
    47.4400        38
    47.4600        42
    47.4800        38
    47.5000        26
    47.5200        30
    47.5400        28
    47.5600        42
    47.5800        30
    47.6000        28
    47.6200        26
    47.6400        40
    47.6600        28
    47.6800        32
    47.7000        38
    47.7200        38
    47.7400        34
    47.7600        34
    47.7800        40
    47.8000        34
    47.8200        28
    47.8400        34
    47.8600        48
    47.8800        26
    47.9000        36
    47.9200        34
    47.9400        26
    47.9600        36
    47.9800        22
    48.0000        44
    48.0200        44
    48.0400        34
    48.0600        22
    48.0800        40
    48.1000        34
    48.1200        24
    48.1400        38
    48.1600        34
    48.1800        40
    48.2000        30
    48.2200        38
    48.2400        54
    48.2600        26
    48.2800        30
    48.3000        38
    48.3200        20
    48.3400        46
    48.3600        22
    48.3800        34
    48.4000        32
    48.4200        40
    48.4400        28
    48.4600        40
    48.4800        42
    48.5000        20
    48.5200        40
    48.5400        26
    48.5600        38
    48.5800        30
    48.6000        20
    48.6200        22
    48.6400        34
    48.6600        44
    48.6800        28
    48.7000        40
    48.7200        44
    48.7400        32
    48.7600        30
    48.7800        44
    48.8000        54
    48.8200        38
    48.8400        38
    48.8600        42
    48.8800        38
    48.9000        30
    48.9200        30
    48.9400        38
    48.9600        40
    48.9800        32
    49.0000        34
    49.0200        28
    49.0400        40
    49.0600        46
    49.0800        42
    49.1000        32
    49.1200        44
    49.1400        34
    49.1600        38
    49.1800        32
    49.2000        36
    49.2200        34
    49.2400        24
    49.2600        34
    49.2800        38
    49.3000        46
    49.3200        30
    49.3400        34
    49.3600        42
    49.3800        38
    49.4000        46
    49.4200        42
    49.4400        42
    49.4600        36
    49.4800        42
    49.5000        44
    49.5200        24
    49.5400        30
    49.5600        46
    49.5800        38
    49.6000        38
    49.6200        44
    49.6400        34
    49.6600        42
    49.6800        22
    49.7000        38
    49.7200        30
    49.7400        36
    49.7600        46
    49.7800        38
    49.8000        30
    49.8200        38
    49.8400        30
    49.8600        36
    49.8800        30
    49.9000        36
    49.9200        24
    49.9400        32
    49.9600        34
    49.9800        30
    50.0000        34
    50.0200        50
    50.0400        30
    50.0600        44
    50.0800        44
    50.1000        30
    50.1200        40
    50.1400        42
    50.1600        36
    50.1800        38
    50.2000        36
    50.2200        40
    50.2400        50
    50.2600        34
    50.2800        36
    50.3000        32
    50.3200        38
    50.3400        42
    50.3600        46
    50.3800        40
    50.4000        38
    50.4200        36
    50.4400        30
    50.4600        32
    50.4800        26
    50.5000        26
    50.5200        50
    50.5400        44
    50.5600        30
    50.5800        38
    50.6000        34
    50.6200        34
    50.6400        28
    50.6600        32
    50.6800        32
    50.7000        36
    50.7200        26
    50.7400        26
    50.7600        32
    50.7800        34
    50.8000        32
    50.8200        26
    50.8400        28
    50.8600        34
    50.8800        30
    50.9000        30
    50.9200        34
    50.9400        28
    50.9600        32
    50.9800        26
    51.0000        32
    51.0200        28
    51.0400        46
    51.0600        36
    51.0800        36
    51.1000        26
    51.1200        28
    51.1400        30
    51.1600        42
    51.1800        38
    51.2000        24
    51.2200        30
    51.2400        34
    51.2600        28
    51.2800        16
    51.3000        28
    51.3200        40
    51.3400        26
    51.3600        30
    51.3800        40
    51.4000        26
    51.4200        30
    51.4400        30
    51.4600        36
    51.4800        28
    51.5000        38
    51.5200        32
    51.5400        28
    51.5600        34
    51.5800        30
    51.6000        34
    51.6200        38
    51.6400        46
    51.6600        32
    51.6800        22
    51.7000        22
    51.7200        28
    51.7400        38
    51.7600        28
    51.7800        36
    51.8000        26
    51.8200        38
    51.8400        22
    51.8600        30
    51.8800        24
    51.9000        36
    51.9200        30
    51.9400        28
    51.9600        28
    51.9800        16
    52.0000        24
    52.0200        30
    52.0400        20
    52.0600        32
    52.0800        36
    52.1000        20
    52.1200        42
    52.1400        36
    52.1600        26
    52.1800        42
    52.2000        36
    52.2200        26
    52.2400        42
    52.2600        40
    52.2800        36
    52.3000        38
    52.3200        36
    52.3400        26
    52.3600        36
    52.3800        28
    52.4000        42
    52.4200        32
    52.4400        34
    52.4600        32
    52.4800        46
    52.5000        32
    52.5200        28
    52.5400        28
    52.5600        40
    52.5800        28
    52.6000        22
    52.6200        40
    52.6400        38
    52.6600        24
    52.6800        40
    52.7000        44
    52.7200        38
    52.7400        44
    52.7600        38
    52.7800        28
    52.8000        38
    52.8200        32
    52.8400        38
    52.8600        30
    52.8800        26
    52.9000        40
    52.9200        30
    52.9400        44
    52.9600        34
    52.9800        30
    53.0000        38
    53.0200        42
    53.0400        40
    53.0600        26
    53.0800        32
    53.1000        40
    53.1200        36
    53.1400        32
    53.1600        52
    53.1800        42
    53.2000        32
    53.2200        30
    53.2400        36
    53.2600        38
    53.2800        34
    53.3000        46
    53.3200        32
    53.3400        44
    53.3600        28
    53.3800        36
    53.4000        36
    53.4200        30
    53.4400        36
    53.4600        40
    53.4800        32
    53.5000        42
    53.5200        34
    53.5400        34
    53.5600        38
    53.5800        32
    53.6000        42
    53.6200        28
    53.6400        40
    53.6600        26
    53.6800        42
    53.7000        36
    53.7200        50
    53.7400        50
    53.7600        32
    53.7800        40
    53.8000        40
    53.8200        28
    53.8400        36
    53.8600        34
    53.8800        38
    53.9000        38
    53.9200        44
    53.9400        22
    53.9600        38
    53.9800        50
    54.0000        40
    54.0200        34
    54.0400        38
    54.0600        40
    54.0800        38
    54.1000        34
    54.1200        38
    54.1400        38
    54.1600        30
    54.1800        50
    54.2000        46
    54.2200        38
    54.2400        36
    54.2600        30
    54.2800        40
    54.3000        34
    54.3200        52
    54.3400        40
    54.3600        50
    54.3800        42
    54.4000        38
    54.4200        40
    54.4400        52
    54.4600        42
    54.4800        42
    54.5000        38
    54.5200        40
    54.5400        38
    54.5600        34
    54.5800        44
    54.6000        38
    54.6200        48
    54.6400        56
    54.6600        56
    54.6800        48
    54.7000        54
    54.7200        44
    54.7400        42
    54.7600        46
    54.7800        46
    54.8000        52
    54.8200        48
    54.8400        64
    54.8600        42
    54.8800        50
    54.9000        46
    54.9200        50
    54.9400        38
    54.9600        46
    54.9800        40
    55.0000        52
    55.0200        46
    55.0400        38
    55.0600        42
    55.0800        50
    55.1000        40
    55.1200        52
    55.1400        32
    55.1600        54
    55.1800        54
    55.2000        38
    55.2200        40
    55.2400        44
    55.2600        40
    55.2800        50
    55.3000        34
    55.3200        56
    55.3400        44
    55.3600        40
    55.3800        38
    55.4000        42
    55.4200        48
    55.4400        62
    55.4600        44
    55.4800        42
    55.5000        38
    55.5200        38
    55.5400        48
    55.5600        60
    55.5800        30
    55.6000        44
    55.6200        36
    55.6400        36
    55.6600        42
    55.6800        52
    55.7000        44
    55.7200        38
    55.7400        52
    55.7600        40
    55.7800        32
    55.8000        36
    55.8200        44
    55.8400        60
    55.8600        38
    55.8800        52
    55.9000        46
    55.9200        40
    55.9400        44
    55.9600        48
    55.9800        48
    56.0000        34
    56.0200        36
    56.0400        40
    56.0600        44
    56.0800        54
    56.1000        40
    56.1200        30
    56.1400        32
    56.1600        36
    56.1800        32
    56.2000        50
    56.2200        32
    56.2400        38
    56.2600        46
    56.2800        26
    56.3000        38
    56.3200        36
    56.3400        36
    56.3600        38
    56.3800        40
    56.4000        30
    56.4200        40
    56.4400        38
    56.4600        52
    56.4800        32
    56.5000        44
    56.5200        28
    56.5400        26
    56.5600        32
    56.5800        30
    56.6000        28
    56.6200        28
    56.6400        28
    56.6600        40
    56.6800        44
    56.7000        32
    56.7200        30
    56.7400        40
    56.7600        44
    56.7800        40
    56.8000        34
    56.8200        42
    56.8400        42
    56.8600        44
    56.8800        32
    56.9000        44
    56.9200        34
    56.9400        48
    56.9600        54
    56.9800        50
    57.0000        40
    57.0200        36
    57.0400        44
    57.0600        42
    57.0800        52
    57.1000        36
    57.1200        50
    57.1400        50
    57.1600        36
    57.1800        40
    57.2000        38
    57.2200        42
    57.2400        42
    57.2600        50
    57.2800        40
    57.3000        36
    57.3200        52
    57.3400        46
    57.3600        36
    57.3800        38
    57.4000        32
    57.4200        38
    57.4400        42
    57.4600        36
    57.4800        42
    57.5000        42
    57.5200        32
    57.5400        44
    57.5600        34
    57.5800        42
    57.6000        48
    57.6200        40
    57.6400        42
    57.6600        36
    57.6800        44
    57.7000        30
    57.7200        44
    57.7400        40
    57.7600        36
    57.7800        44
    57.8000        32
    57.8200        38
    57.8400        30
    57.8600        28
    57.8800        50
    57.9000        30
    57.9200        38
    57.9400        30
    57.9600        40
    57.9800        44
    58.0000        38
    58.0200        38
    58.0400        30
    58.0600        40
    58.0800        34
    58.1000        32
    58.1200        34
    58.1400        48
    58.1600        42
    58.1800        44
    58.2000        36
    58.2200        44
    58.2400        42
    58.2600        34
    58.2800        32
    58.3000        28
    58.3200        40
    58.3400        38
    58.3600        38
    58.3800        58
    58.4000        46
    58.4200        44
    58.4400        62
    58.4600        54
    58.4800        44
    58.5000        38
    58.5200        34
    58.5400        32
    58.5600        50
    58.5800        42
    58.6000        36
    58.6200        40
    58.6400        38
    58.6600        44
    58.6800        48
    58.7000        48
    58.7200        36
    58.7400        34
    58.7600        52
    58.7800        56
    58.8000        50
    58.8200        46
    58.8400        30
    58.8600        42
    58.8800        46
    58.9000        42
    58.9200        42
    58.9400        56
    58.9600        38
    58.9800        46
    59.0000        46
    59.0200        46
    59.0400        50
    59.0600        42
    59.0800        48
    59.1000        66
    59.1200        54
    59.1400        54
    59.1600        48
    59.1800        60
    59.2000        58
    59.2200        64
    59.2400        44
    59.2600        54
    59.2800        42
    59.3000        54
    59.3200        54
    59.3400        62
    59.3600        62
    59.3800        36
    59.4000        34
    59.4200        44
    59.4400        48
    59.4600        42
    59.4800        50
    59.5000        46
    59.5200        48
    59.5400        46
    59.5600        32
    59.5800        48
    59.6000        28
    59.6200        36
    59.6400        46
    59.6600        48
    59.6800        40
    59.7000        42
    59.7200        52
    59.7400        40
    59.7600        40
    59.7800        46
    59.8000        44
    59.8200        42
    59.8400        48
    59.8600        32
    59.8800        34
    59.9000        32
    59.9200        30
    59.9400        46
    59.9600        32
    59.9800        42
    60.0000        48
    60.0200        46
    60.0400        44
    60.0600        26
    60.0800        46
    60.1000        42
    60.1200        38
    60.1400        28
    60.1600        36
    60.1800        40
    60.2000        36
    60.2200        38
    60.2400        26
    60.2600        42
    60.2800        40
    60.3000        32
    60.3200        30
    60.3400        34
    60.3600        46
    60.3800        30
    60.4000        36
    60.4200        42
    60.4400        34
    60.4600        34
    60.4800        34
    60.5000        40
    60.5200        32
    60.5400        36
    60.5600        38
    60.5800        32
    60.6000        32
    60.6200        40
    60.6400        46
    60.6600        30
    60.6800        38
    60.7000        28
    60.7200        34
    60.7400        36
    60.7600        36
    60.7800        30
    60.8000        30
    60.8200        36
    60.8400        34
    60.8600        40
    60.8800        38
    60.9000        34
    60.9200        44
    60.9400        34
    60.9600        44
    60.9800        24
    61.0000        44
    61.0200        36
    61.0400        36
    61.0600        38
    61.0800        40
    61.1000        40
    61.1200        50
    61.1400        42
    61.1600        48
    61.1800        46
    61.2000        46
    61.2200        46
    61.2400        44
    61.2600        38
    61.2800        62
    61.3000        54
    61.3200        56
    61.3400        42
    61.3600        58
    61.3800        54
    61.4000        60
    61.4200        42
    61.4400        52
    61.4600        50
    61.4800        58
    61.5000        42
    61.5200        58
    61.5400        50
    61.5600        50
    61.5800        48
    61.6000        44
    61.6200        46
    61.6400        52
    61.6600        44
    61.6800        44
    61.7000        52
    61.7200        52
    61.7400        46
    61.7600        58
    61.7800        42
    61.8000        54
    61.8200        42
    61.8400        48
    61.8600        50
    61.8800        32
    61.9000        34
    61.9200        56
    61.9400        40
    61.9600        58
    61.9800        34
    62.0000        42
    62.0200        50
    62.0400        40
    62.0600        36
    62.0800        36
    62.1000        38
    62.1200        38
    62.1400        40
    62.1600        48
    62.1800        40
    62.2000        42
    62.2200        50
    62.2400        34
    62.2600        54
    62.2800        56
    62.3000        62
    62.3200        56
    62.3400        38
    62.3600        58
    62.3800        40
    62.4000        38
    62.4200        46
    62.4400        48
    62.4600        52
    62.4800        40
    62.5000        54
    62.5200        46
    62.5400        48
    62.5600        34
    62.5800        46
    62.6000        38
    62.6200        42
    62.6400        36
    62.6600        36
    62.6800        30
    62.7000        46
    62.7200        34
    62.7400        42
    62.7600        38
    62.7800        38
    62.8000        26
    62.8200        28
    62.8400        28
    62.8600        36
    62.8800        28
    62.9000        26
    62.9200        36
    62.9400        34
    62.9600        30
    62.9800        36
    63.0000        32
    63.0200        26
    63.0400        40
    63.0600        30
    63.0800        26
    63.1000        26
    63.1200        32
    63.1400        26
    63.1600        38
    63.1800        42
    63.2000        28
    63.2200        48
    63.2400        30
    63.2600        30
    63.2800        24
    63.3000        38
    63.3200        30
    63.3400        32
    63.3600        28
    63.3800        26
    63.4000        36
    63.4200        20
    63.4400        42
    63.4600        30
    63.4800        38
    63.5000        40
    63.5200        30
    63.5400        38
    63.5600        34
    63.5800        30
    63.6000        34
    63.6200        26
    63.6400        30
    63.6600        32
    63.6800        40
    63.7000        38
    63.7200        26
    63.7400        40
    63.7600        28
    63.7800        30
    63.8000        30
    63.8200        36
    63.8400        40
    63.8600        28
    63.8800        26
    63.9000        28
    63.9200        32
    63.9400        26
    63.9600        32
    63.9800        22
    64.0000        26
    64.0200        26
    64.0400        32
    64.0600        24
    64.0800        40
    64.1000        26
    64.1200        38
    64.1400        24
    64.1600        32
    64.1800        36
    64.2000        30
    64.2200        38
    64.2400        32
    64.2600        28
    64.2800        36
    64.3000        26
    64.3200        28
    64.3400        32
    64.3600        32
    64.3800        20
    64.4000        36
    64.4200        36
    64.4400        40
    64.4600        32
    64.4800        26
    64.5000        30
    64.5200        34
    64.5400        38
    64.5600        26
    64.5800        38
    64.6000        36
    64.6200        34
    64.6400        28
    64.6600        28
    64.6800        44
    64.7000        38
    64.7200        24
    64.7400        28
    64.7600        46
    64.7800        30
    64.8000        32
    64.8200        36
    64.8400        30
    64.8600        38
    64.8800        38
    64.9000        44
    64.9200        26
    64.9400        44
    64.9600        32
    64.9800        44
    65.0000        38
