/////////////////////////////////////////////////////////////////////////////////
/// Profile Data Ascii Dump (XRD)                                             ///
/////////////////////////////////////////////////////////////////////////////////

  Group     : Swayze
  Data      : LC-5
  File Name : LC-5.RAW

# Profile Datafile
          comment             = Alunite-250C-30hrs 
          date & time         = 08-04-01 07:18:54 

# Measurement Condition
    X-ray tube
          target              = Cu 
          voltage             = 40.0 (kV)
          current             = 30.0 (mA)
    Slits
          divergence slit     = 2.00000 (deg) 
          scatter slit        = 2.00000 (deg) 
          receiving slit      = 0.15000 (mm)  
    Scanning
          drive axis          = Theta-2Theta 
          scan range          =    4.000 -   65.000 
          scan mode           = Continuous Scan 
          scan speed          =   2.0000 (deg/min) 
          sampling pitch      =   0.0200 (deg) 
          preset time         =   0.60 (sec) 

# Data      [ Total No. = 3051 ]
  <2Theta>   <   I   >
     4.0000       208
     4.0200       198
     4.0400       186
     4.0600       212
     4.0800       178
     4.1000       198
     4.1200       198
     4.1400       178
     4.1600       204
     4.1800       218
     4.2000       188
     4.2200       198
     4.2400       202
     4.2600       186
     4.2800       188
     4.3000       190
     4.3200       178
     4.3400       202
     4.3600       176
     4.3800       184
     4.4000       186
     4.4200       172
     4.4400       200
     4.4600       160
     4.4800       168
     4.5000       158
     4.5200       172
     4.5400       166
     4.5600       182
     4.5800       212
     4.6000       176
     4.6200       182
     4.6400       162
     4.6600       152
     4.6800       174
     4.7000       166
     4.7200       184
     4.7400       176
     4.7600       172
     4.7800       166
     4.8000       170
     4.8200       158
     4.8400       164
     4.8600       150
     4.8800       188
     4.9000       154
     4.9200       188
     4.9400       180
     4.9600       176
     4.9800       170
     5.0000       158
     5.0200       164
     5.0400       168
     5.0600       164
     5.0800       172
     5.1000       150
     5.1200       188
     5.1400       162
     5.1600       136
     5.1800       170
     5.2000       180
     5.2200       178
     5.2400       188
     5.2600       166
     5.2800       150
     5.3000       176
     5.3200       168
     5.3400       168
     5.3600       174
     5.3800       178
     5.4000       186
     5.4200       172
     5.4400       154
     5.4600       198
     5.4800       130
     5.5000       180
     5.5200       176
     5.5400       188
     5.5600       178
     5.5800       186
     5.6000       154
     5.6200       182
     5.6400       178
     5.6600       170
     5.6800       174
     5.7000       150
     5.7200       150
     5.7400       186
     5.7600       172
     5.7800       172
     5.8000       148
     5.8200       156
     5.8400       182
     5.8600       162
     5.8800       176
     5.9000       176
     5.9200       176
     5.9400       164
     5.9600       144
     5.9800       174
     6.0000       158
     6.0200       156
     6.0400       146
     6.0600       166
     6.0800       160
     6.1000       156
     6.1200       154
     6.1400       136
     6.1600       138
     6.1800       170
     6.2000       150
     6.2200       116
     6.2400       184
     6.2600       156
     6.2800       148
     6.3000       156
     6.3200       150
     6.3400       130
     6.3600       150
     6.3800       144
     6.4000       130
     6.4200       172
     6.4400       118
     6.4600       138
     6.4800       152
     6.5000       144
     6.5200       130
     6.5400       128
     6.5600       114
     6.5800       146
     6.6000       130
     6.6200       138
     6.6400       160
     6.6600       148
     6.6800       120
     6.7000       150
     6.7200       120
     6.7400       134
     6.7600       144
     6.7800       136
     6.8000       130
     6.8200       164
     6.8400       136
     6.8600       126
     6.8800       124
     6.9000       122
     6.9200       138
     6.9400       118
     6.9600       136
     6.9800       134
     7.0000       122
     7.0200       152
     7.0400       124
     7.0600       138
     7.0800        98
     7.1000       122
     7.1200       122
     7.1400       134
     7.1600       116
     7.1800       120
     7.2000       102
     7.2200       128
     7.2400       106
     7.2600       128
     7.2800       128
     7.3000       136
     7.3200       128
     7.3400       124
     7.3600       130
     7.3800        98
     7.4000       122
     7.4200       140
     7.4400       108
     7.4600       106
     7.4800       114
     7.5000       112
     7.5200       134
     7.5400       132
     7.5600       120
     7.5800       136
     7.6000       116
     7.6200       136
     7.6400       130
     7.6600       138
     7.6800       122
     7.7000       120
     7.7200       134
     7.7400       116
     7.7600       104
     7.7800       120
     7.8000       108
     7.8200        98
     7.8400       116
     7.8600       102
     7.8800       114
     7.9000       102
     7.9200       120
     7.9400       130
     7.9600       116
     7.9800        94
     8.0000       122
     8.0200        88
     8.0400       122
     8.0600       120
     8.0800       116
     8.1000        96
     8.1200       136
     8.1400        94
     8.1600       112
     8.1800       122
     8.2000       102
     8.2200       122
     8.2400       114
     8.2600       134
     8.2800       108
     8.3000       106
     8.3200       132
     8.3400       104
     8.3600       130
     8.3800       116
     8.4000       126
     8.4200       126
     8.4400       114
     8.4600       118
     8.4800       106
     8.5000       126
     8.5200       120
     8.5400        98
     8.5600       128
     8.5800       136
     8.6000       126
     8.6200       120
     8.6400       126
     8.6600       116
     8.6800       116
     8.7000       118
     8.7200       118
     8.7400       122
     8.7600       126
     8.7800       120
     8.8000       128
     8.8200       130
     8.8400       114
     8.8600       128
     8.8800       124
     8.9000       104
     8.9200       112
     8.9400       102
     8.9600       118
     8.9800       104
     9.0000       130
     9.0200       120
     9.0400       128
     9.0600       136
     9.0800        98
     9.1000       100
     9.1200       110
     9.1400       118
     9.1600       102
     9.1800       110
     9.2000       128
     9.2200       116
     9.2400        98
     9.2600       114
     9.2800       126
     9.3000       134
     9.3200       102
     9.3400       128
     9.3600       112
     9.3800       102
     9.4000       108
     9.4200       114
     9.4400       118
     9.4600       106
     9.4800       128
     9.5000       118
     9.5200       126
     9.5400       108
     9.5600        98
     9.5800        86
     9.6000       108
     9.6200       116
     9.6400       108
     9.6600       104
     9.6800       124
     9.7000       102
     9.7200       112
     9.7400        92
     9.7600       104
     9.7800       104
     9.8000       120
     9.8200       104
     9.8400       122
     9.8600       108
     9.8800       126
     9.9000       114
     9.9200       112
     9.9400       112
     9.9600       102
     9.9800       122
    10.0000        96
    10.0200       102
    10.0400       100
    10.0600       108
    10.0800       108
    10.1000       102
    10.1200        90
    10.1400       112
    10.1600       112
    10.1800       100
    10.2000       124
    10.2200       110
    10.2400       114
    10.2600       118
    10.2800        96
    10.3000       108
    10.3200        94
    10.3400       118
    10.3600       114
    10.3800       102
    10.4000       102
    10.4200        96
    10.4400       102
    10.4600       102
    10.4800       112
    10.5000       100
    10.5200       102
    10.5400       122
    10.5600        98
    10.5800        96
    10.6000       112
    10.6200        96
    10.6400       100
    10.6600        92
    10.6800        86
    10.7000        84
    10.7200        98
    10.7400        86
    10.7600       102
    10.7800       104
    10.8000        86
    10.8200        94
    10.8400        88
    10.8600       104
    10.8800        88
    10.9000        76
    10.9200        96
    10.9400        90
    10.9600        82
    10.9800        90
    11.0000       104
    11.0200        96
    11.0400        98
    11.0600        96
    11.0800        94
    11.1000        74
    11.1200        98
    11.1400        96
    11.1600        90
    11.1800        90
    11.2000       106
    11.2200        90
    11.2400        92
    11.2600        98
    11.2800        80
    11.3000        74
    11.3200       118
    11.3400       112
    11.3600        94
    11.3800        86
    11.4000       104
    11.4200        92
    11.4400        86
    11.4600        82
    11.4800        80
    11.5000        76
    11.5200       106
    11.5400        84
    11.5600        92
    11.5800        98
    11.6000        68
    11.6200        84
    11.6400       104
    11.6600        76
    11.6800        90
    11.7000        94
    11.7200        80
    11.7400        76
    11.7600        98
    11.7800        98
    11.8000        84
    11.8200        76
    11.8400        82
    11.8600        76
    11.8800        74
    11.9000       100
    11.9200        78
    11.9400        98
    11.9600        58
    11.9800        84
    12.0000        92
    12.0200        92
    12.0400       104
    12.0600        74
    12.0800        84
    12.1000        84
    12.1200        84
    12.1400        90
    12.1600       102
    12.1800        86
    12.2000        84
    12.2200        74
    12.2400        66
    12.2600        88
    12.2800        84
    12.3000        92
    12.3200        86
    12.3400       102
    12.3600        82
    12.3800       102
    12.4000       104
    12.4200        86
    12.4400        76
    12.4600        78
    12.4800        76
    12.5000        78
    12.5200        86
    12.5400        80
    12.5600        78
    12.5800        60
    12.6000        92
    12.6200        82
    12.6400        84
    12.6600        84
    12.6800        96
    12.7000       100
    12.7200        88
    12.7400        78
    12.7600        78
    12.7800        80
    12.8000        86
    12.8200        82
    12.8400        86
    12.8600        76
    12.8800        64
    12.9000        68
    12.9200        62
    12.9400        92
    12.9600        94
    12.9800        66
    13.0000        86
    13.0200        76
    13.0400        74
    13.0600        82
    13.0800        62
    13.1000        76
    13.1200        72
    13.1400        74
    13.1600        78
    13.1800        76
    13.2000        66
    13.2200        72
    13.2400        74
    13.2600        82
    13.2800        64
    13.3000        68
    13.3200        82
    13.3400        84
    13.3600        78
    13.3800        74
    13.4000        82
    13.4200        78
    13.4400        74
    13.4600        64
    13.4800        68
    13.5000        68
    13.5200        74
    13.5400        80
    13.5600        82
    13.5800        78
    13.6000        82
    13.6200        76
    13.6400        68
    13.6600        56
    13.6800        66
    13.7000        78
    13.7200        74
    13.7400        82
    13.7600        78
    13.7800        86
    13.8000        74
    13.8200        66
    13.8400        76
    13.8600        66
    13.8800        58
    13.9000        68
    13.9200        80
    13.9400        74
    13.9600        56
    13.9800        64
    14.0000        66
    14.0200        48
    14.0400        80
    14.0600        76
    14.0800        74
    14.1000        88
    14.1200        70
    14.1400        68
    14.1600        84
    14.1800        64
    14.2000        72
    14.2200        78
    14.2400        78
    14.2600        66
    14.2800        68
    14.3000        64
    14.3200        66
    14.3400        66
    14.3600        84
    14.3800        64
    14.4000        62
    14.4200        80
    14.4400        66
    14.4600        68
    14.4800        72
    14.5000        80
    14.5200        68
    14.5400       100
    14.5600        72
    14.5800       108
    14.6000        78
    14.6200        94
    14.6400        94
    14.6600       104
    14.6800       122
    14.7000        94
    14.7200        94
    14.7400        86
    14.7600        74
    14.7800        92
    14.8000       100
    14.8200        78
    14.8400        92
    14.8600        72
    14.8800        90
    14.9000        64
    14.9200        96
    14.9400        86
    14.9600        80
    14.9800        82
    15.0000        72
    15.0200        62
    15.0400        86
    15.0600        76
    15.0800        68
    15.1000        74
    15.1200        86
    15.1400        92
    15.1600        74
    15.1800        98
    15.2000        88
    15.2200        98
    15.2400       106
    15.2600       102
    15.2800       108
    15.3000       106
    15.3200       112
    15.3400       100
    15.3600       136
    15.3800       150
    15.4000       142
    15.4200       162
    15.4400       196
    15.4600       196
    15.4800       200
    15.5000       176
    15.5200       158
    15.5400       118
    15.5600       136
    15.5800       102
    15.6000        78
    15.6200        62
    15.6400        74
    15.6600        74
    15.6800        74
    15.7000        70
    15.7200        68
    15.7400        78
    15.7600        58
    15.7800        62
    15.8000        70
    15.8200        54
    15.8400        78
    15.8600        82
    15.8800        58
    15.9000        50
    15.9200        68
    15.9400        52
    15.9600        60
    15.9800        82
    16.0000        60
    16.0200        64
    16.0400        60
    16.0600        66
    16.0800        60
    16.1000        64
    16.1200        58
    16.1400        54
    16.1600        56
    16.1800        52
    16.2000        62
    16.2200        78
    16.2400        68
    16.2600        60
    16.2800        48
    16.3000        60
    16.3200        62
    16.3400        64
    16.3600        66
    16.3800        64
    16.4000        64
    16.4200        50
    16.4400        46
    16.4600        50
    16.4800        64
    16.5000        52
    16.5200        68
    16.5400        62
    16.5600        62
    16.5800        72
    16.6000        74
    16.6200        64
    16.6400        60
    16.6600        68
    16.6800        58
    16.7000        46
    16.7200        64
    16.7400        66
    16.7600        64
    16.7800        54
    16.8000        60
    16.8200        54
    16.8400        70
    16.8600        44
    16.8800        56
    16.9000        62
    16.9200        60
    16.9400        68
    16.9600        72
    16.9800        76
    17.0000        60
    17.0200        54
    17.0400        80
    17.0600        64
    17.0800        60
    17.1000        88
    17.1200        64
    17.1400        48
    17.1600        56
    17.1800        58
    17.2000        70
    17.2200        68
    17.2400        64
    17.2600        58
    17.2800        68
    17.3000        78
    17.3200        72
    17.3400        60
    17.3600        70
    17.3800        88
    17.4000        80
    17.4200        58
    17.4400        74
    17.4600        90
    17.4800        92
    17.5000       110
    17.5200       100
    17.5400       110
    17.5600        86
    17.5800       102
    17.6000       150
    17.6200       126
    17.6400       158
    17.6600       140
    17.6800       166
    17.7000       162
    17.7200       192
    17.7400       226
    17.7600       262
    17.7800       296
    17.8000       418
    17.8200       460
    17.8400       500
    17.8600       518
    17.8800       488
    17.9000       426
    17.9200       412
    17.9400       278
    17.9600       208
    17.9800       164
    18.0000       148
    18.0200       106
    18.0400        96
    18.0600        96
    18.0800        82
    18.1000        84
    18.1200        72
    18.1400        88
    18.1600        72
    18.1800        74
    18.2000        72
    18.2200        72
    18.2400        70
    18.2600        70
    18.2800        68
    18.3000        62
    18.3200        54
    18.3400        64
    18.3600        64
    18.3800        62
    18.4000        62
    18.4200        60
    18.4400        74
    18.4600        64
    18.4800        72
    18.5000        68
    18.5200        76
    18.5400        58
    18.5600        58
    18.5800        72
    18.6000        62
    18.6200        54
    18.6400        54
    18.6600        62
    18.6800        70
    18.7000        60
    18.7200        66
    18.7400        66
    18.7600        56
    18.7800        52
    18.8000        78
    18.8200        46
    18.8400        60
    18.8600        42
    18.8800        64
    18.9000        78
    18.9200        58
    18.9400        68
    18.9600        58
    18.9800        62
    19.0000        52
    19.0200        54
    19.0400        56
    19.0600        58
    19.0800        68
    19.1000        52
    19.1200        72
    19.1400        60
    19.1600        54
    19.1800        70
    19.2000        60
    19.2200        62
    19.2400        74
    19.2600        60
    19.2800        60
    19.3000        72
    19.3200        76
    19.3400        62
    19.3600        58
    19.3800        56
    19.4000        48
    19.4200        62
    19.4400        80
    19.4600        68
    19.4800        68
    19.5000        66
    19.5200        68
    19.5400        82
    19.5600        66
    19.5800        58
    19.6000        64
    19.6200        52
    19.6400        60
    19.6600        64
    19.6800        58
    19.7000        70
    19.7200        74
    19.7400        72
    19.7600        74
    19.7800        78
    19.8000        64
    19.8200        80
    19.8400        72
    19.8600        64
    19.8800        62
    19.9000        64
    19.9200        88
    19.9400        66
    19.9600        78
    19.9800        74
    20.0000        72
    20.0200        66
    20.0400        84
    20.0600        82
    20.0800        76
    20.1000        54
    20.1200        80
    20.1400        70
    20.1600        54
    20.1800        64
    20.2000        76
    20.2200        76
    20.2400        78
    20.2600        76
    20.2800        70
    20.3000        74
    20.3200        94
    20.3400        74
    20.3600        70
    20.3800        64
    20.4000        68
    20.4200        60
    20.4400        72
    20.4600        74
    20.4800        72
    20.5000        72
    20.5200        74
    20.5400        66
    20.5600        66
    20.5800        72
    20.6000        80
    20.6200        82
    20.6400        66
    20.6600        82
    20.6800        64
    20.7000        76
    20.7200        68
    20.7400        90
    20.7600        74
    20.7800        80
    20.8000        74
    20.8200        70
    20.8400        90
    20.8600        90
    20.8800        70
    20.9000        92
    20.9200        78
    20.9400        84
    20.9600        84
    20.9800        78
    21.0000        86
    21.0200        88
    21.0400        86
    21.0600        68
    21.0800        58
    21.1000        68
    21.1200        70
    21.1400        72
    21.1600        54
    21.1800        62
    21.2000        76
    21.2200        64
    21.2400        72
    21.2600        68
    21.2800        82
    21.3000        64
    21.3200        66
    21.3400        54
    21.3600        72
    21.3800        64
    21.4000        64
    21.4200        62
    21.4400        54
    21.4600        64
    21.4800        80
    21.5000        58
    21.5200        46
    21.5400        54
    21.5600        62
    21.5800        66
    21.6000        68
    21.6200        54
    21.6400        60
    21.6600        70
    21.6800        76
    21.7000        60
    21.7200        86
    21.7400        64
    21.7600        66
    21.7800        62
    21.8000        64
    21.8200        86
    21.8400        72
    21.8600        72
    21.8800        78
    21.9000        48
    21.9200        76
    21.9400        74
    21.9600        84
    21.9800        72
    22.0000        68
    22.0200        72
    22.0400        54
    22.0600        54
    22.0800        58
    22.1000        64
    22.1200        70
    22.1400        66
    22.1600        58
    22.1800        80
    22.2000        86
    22.2200        86
    22.2400        78
    22.2600        66
    22.2800        70
    22.3000        58
    22.3200        62
    22.3400        68
    22.3600        82
    22.3800        72
    22.4000        92
    22.4200        68
    22.4400        68
    22.4600        62
    22.4800        56
    22.5000        72
    22.5200        64
    22.5400        76
    22.5600        72
    22.5800        78
    22.6000        74
    22.6200        68
    22.6400        64
    22.6600        72
    22.6800        56
    22.7000        90
    22.7200        76
    22.7400        74
    22.7600        74
    22.7800        70
    22.8000        78
    22.8200        62
    22.8400        72
    22.8600        70
    22.8800        60
    22.9000        58
    22.9200        54
    22.9400        66
    22.9600        70
    22.9800        80
    23.0000        62
    23.0200        66
    23.0400        68
    23.0600        62
    23.0800        52
    23.1000        70
    23.1200        54
    23.1400        70
    23.1600        74
    23.1800        56
    23.2000        80
    23.2200        84
    23.2400        68
    23.2600        56
    23.2800        78
    23.3000        64
    23.3200        78
    23.3400        58
    23.3600        60
    23.3800        64
    23.4000        68
    23.4200        60
    23.4400        54
    23.4600        62
    23.4800        46
    23.5000        64
    23.5200        78
    23.5400        70
    23.5600        72
    23.5800        74
    23.6000        62
    23.6200        76
    23.6400        58
    23.6600        64
    23.6800        62
    23.7000        72
    23.7200        44
    23.7400        62
    23.7600        58
    23.7800        62
    23.8000        64
    23.8200        60
    23.8400        66
    23.8600        58
    23.8800        48
    23.9000        54
    23.9200        72
    23.9400        52
    23.9600        52
    23.9800        68
    24.0000        66
    24.0200        76
    24.0400        64
    24.0600        54
    24.0800        74
    24.1000        50
    24.1200        58
    24.1400        60
    24.1600        62
    24.1800        56
    24.2000        62
    24.2200        66
    24.2400        66
    24.2600        76
    24.2800        72
    24.3000        62
    24.3200        78
    24.3400        62
    24.3600        76
    24.3800        54
    24.4000        50
    24.4200        68
    24.4400        58
    24.4600        64
    24.4800        74
    24.5000        76
    24.5200        66
    24.5400        58
    24.5600        64
    24.5800        70
    24.6000       102
    24.6200        80
    24.6400        74
    24.6600        76
    24.6800        56
    24.7000        80
    24.7200        80
    24.7400        84
    24.7600        70
    24.7800        70
    24.8000        78
    24.8200        74
    24.8400        74
    24.8600        82
    24.8800        70
    24.9000        68
    24.9200        72
    24.9400        70
    24.9600        66
    24.9800        82
    25.0000        70
    25.0200        84
    25.0400        72
    25.0600        70
    25.0800        86
    25.1000        72
    25.1200        88
    25.1400        68
    25.1600        98
    25.1800       102
    25.2000       124
    25.2200       102
    25.2400       110
    25.2600       150
    25.2800       158
    25.3000       186
    25.3200       216
    25.3400       286
    25.3600       292
    25.3800       356
    25.4000       412
    25.4200       412
    25.4400       368
    25.4600       398
    25.4800       342
    25.5000       288
    25.5200       246
    25.5400       186
    25.5600       164
    25.5800       154
    25.6000       146
    25.6200       118
    25.6400       146
    25.6600        92
    25.6800        90
    25.7000        88
    25.7200        84
    25.7400        88
    25.7600        86
    25.7800        78
    25.8000        66
    25.8200        68
    25.8400        72
    25.8600        66
    25.8800        58
    25.9000        62
    25.9200        64
    25.9400        58
    25.9600        74
    25.9800        50
    26.0000        62
    26.0200        50
    26.0400        66
    26.0600        68
    26.0800        46
    26.1000        72
    26.1200        52
    26.1400        60
    26.1600        62
    26.1800        62
    26.2000        58
    26.2200        52
    26.2400        58
    26.2600        80
    26.2800        68
    26.3000        62
    26.3200        60
    26.3400        64
    26.3600        56
    26.3800        70
    26.4000        82
    26.4200        76
    26.4400        68
    26.4600        82
    26.4800        74
    26.5000        86
    26.5200       138
    26.5400       156
    26.5600       154
    26.5800       156
    26.6000       190
    26.6200       142
    26.6400       160
    26.6600       136
    26.6800        90
    26.7000        86
    26.7200        78
    26.7400        80
    26.7600        78
    26.7800        52
    26.8000        60
    26.8200        68
    26.8400        72
    26.8600        62
    26.8800        56
    26.9000        46
    26.9200        68
    26.9400        56
    26.9600        56
    26.9800        68
    27.0000        70
    27.0200        52
    27.0400        60
    27.0600        62
    27.0800        68
    27.1000        58
    27.1200        64
    27.1400        72
    27.1600        62
    27.1800        78
    27.2000        74
    27.2200        58
    27.2400        74
    27.2600        90
    27.2800        78
    27.3000        98
    27.3200        98
    27.3400        94
    27.3600       100
    27.3800        90
    27.4000       102
    27.4200        70
    27.4400        64
    27.4600        76
    27.4800        72
    27.5000        56
    27.5200        62
    27.5400        66
    27.5600        48
    27.5800        56
    27.6000        62
    27.6200        50
    27.6400        64
    27.6600        54
    27.6800        60
    27.7000        44
    27.7200        44
    27.7400        56
    27.7600        58
    27.7800        58
    27.8000        64
    27.8200        62
    27.8400        54
    27.8600        64
    27.8800        60
    27.9000        70
    27.9200        54
    27.9400        76
    27.9600        62
    27.9800        58
    28.0000        74
    28.0200        58
    28.0400        58
    28.0600        46
    28.0800        50
    28.1000        72
    28.1200        62
    28.1400        46
    28.1600        64
    28.1800        58
    28.2000        48
    28.2200        60
    28.2400        50
    28.2600        56
    28.2800        54
    28.3000        48
    28.3200        42
    28.3400        56
    28.3600        64
    28.3800        54
    28.4000        52
    28.4200        60
    28.4400        80
    28.4600        56
    28.4800        62
    28.5000        46
    28.5200        36
    28.5400        50
    28.5600        50
    28.5800        72
    28.6000        50
    28.6200        64
    28.6400        56
    28.6600        66
    28.6800        52
    28.7000        56
    28.7200        44
    28.7400        52
    28.7600        54
    28.7800        54
    28.8000        52
    28.8200        68
    28.8400        58
    28.8600        56
    28.8800        60
    28.9000        56
    28.9200        70
    28.9400        60
    28.9600        44
    28.9800        74
    29.0000        50
    29.0200        72
    29.0400        62
    29.0600        68
    29.0800        64
    29.1000        66
    29.1200        58
    29.1400        78
    29.1600        74
    29.1800        74
    29.2000        64
    29.2200        88
    29.2400        72
    29.2600        80
    29.2800        60
    29.3000        94
    29.3200        66
    29.3400        80
    29.3600       106
    29.3800       116
    29.4000       106
    29.4200        96
    29.4400       128
    29.4600       114
    29.4800       120
    29.5000       152
    29.5200       142
    29.5400       168
    29.5600       182
    29.5800       236
    29.6000       272
    29.6200       272
    29.6400       282
    29.6600       330
    29.6800       392
    29.7000       494
    29.7200       528
    29.7400       630
    29.7600       770
    29.7800       912
    29.8000      1092
    29.8200      1302
    29.8400      1422
    29.8600      1542
    29.8800      1456
    29.9000      1412
    29.9200      1254
    29.9400      1080
    29.9600       870
    29.9800       718
    30.0000       530
    30.0200       430
    30.0400       282
    30.0600       262
    30.0800       168
    30.1000       156
    30.1200       134
    30.1400       136
    30.1600       130
    30.1800        88
    30.2000        88
    30.2200        90
    30.2400        80
    30.2600        68
    30.2800        72
    30.3000        62
    30.3200        68
    30.3400        58
    30.3600        76
    30.3800        60
    30.4000        50
    30.4200        68
    30.4400        56
    30.4600        56
    30.4800        46
    30.5000        48
    30.5200        62
    30.5400        56
    30.5600        68
    30.5800        66
    30.6000        70
    30.6200        58
    30.6400        56
    30.6600        50
    30.6800        56
    30.7000        48
    30.7200        62
    30.7400        62
    30.7600        58
    30.7800        58
    30.8000        56
    30.8200        60
    30.8400        66
    30.8600        70
    30.8800        82
    30.9000        68
    30.9200        72
    30.9400        82
    30.9600       102
    30.9800        94
    31.0000       110
    31.0200       118
    31.0400       116
    31.0600       136
    31.0800       128
    31.1000       156
    31.1200       140
    31.1400       116
    31.1600       112
    31.1800       108
    31.2000       104
    31.2200        82
    31.2400        84
    31.2600        72
    31.2800        68
    31.3000        88
    31.3200        62
    31.3400        70
    31.3600        74
    31.3800        70
    31.4000        88
    31.4200        78
    31.4400        98
    31.4600        86
    31.4800       108
    31.5000       120
    31.5200       142
    31.5400       202
    31.5600       226
    31.5800       274
    31.6000       308
    31.6200       380
    31.6400       404
    31.6600       460
    31.6800       374
    31.7000       384
    31.7200       292
    31.7400       266
    31.7600       232
    31.7800       160
    31.8000       156
    31.8200       124
    31.8400       118
    31.8600        94
    31.8800        80
    31.9000        84
    31.9200        62
    31.9400        86
    31.9600        62
    31.9800        84
    32.0000        68
    32.0200        52
    32.0400        56
    32.0600        48
    32.0800        48
    32.1000        56
    32.1200        56
    32.1400        46
    32.1600        48
    32.1800        42
    32.2000        44
    32.2200        44
    32.2400        40
    32.2600        50
    32.2800        36
    32.3000        46
    32.3200        52
    32.3400        52
    32.3600        44
    32.3800        56
    32.4000        46
    32.4200        46
    32.4400        34
    32.4600        44
    32.4800        40
    32.5000        36
    32.5200        30
    32.5400        40
    32.5600        40
    32.5800        44
    32.6000        30
    32.6200        62
    32.6400        54
    32.6600        32
    32.6800        44
    32.7000        52
    32.7200        50
    32.7400        38
    32.7600        34
    32.7800        46
    32.8000        42
    32.8200        54
    32.8400        44
    32.8600        52
    32.8800        38
    32.9000        32
    32.9200        40
    32.9400        48
    32.9600        52
    32.9800        50
    33.0000        52
    33.0200        56
    33.0400        38
    33.0600        44
    33.0800        32
    33.1000        34
    33.1200        32
    33.1400        38
    33.1600        46
    33.1800        54
    33.2000        36
    33.2200        38
    33.2400        30
    33.2600        40
    33.2800        46
    33.3000        34
    33.3200        34
    33.3400        52
    33.3600        38
    33.3800        44
    33.4000        42
    33.4200        44
    33.4400        54
    33.4600        42
    33.4800        46
    33.5000        52
    33.5200        42
    33.5400        38
    33.5600        32
    33.5800        36
    33.6000        40
    33.6200        36
    33.6400        48
    33.6600        24
    33.6800        36
    33.7000        40
    33.7200        36
    33.7400        46
    33.7600        24
    33.7800        34
    33.8000        46
    33.8200        40
    33.8400        50
    33.8600        30
    33.8800        36
    33.9000        36
    33.9200        44
    33.9400        38
    33.9600        40
    33.9800        36
    34.0000        44
    34.0200        50
    34.0400        42
    34.0600        48
    34.0800        42
    34.1000        34
    34.1200        28
    34.1400        34
    34.1600        36
    34.1800        44
    34.2000        46
    34.2200        42
    34.2400        48
    34.2600        30
    34.2800        40
    34.3000        32
    34.3200        32
    34.3400        40
    34.3600        40
    34.3800        40
    34.4000        32
    34.4200        46
    34.4400        34
    34.4600        46
    34.4800        50
    34.5000        50
    34.5200        46
    34.5400        60
    34.5600        44
    34.5800        48
    34.6000        48
    34.6200        34
    34.6400        40
    34.6600        40
    34.6800        36
    34.7000        50
    34.7200        48
    34.7400        44
    34.7600        42
    34.7800        56
    34.8000        46
    34.8200        58
    34.8400        42
    34.8600        50
    34.8800        50
    34.9000        50
    34.9200        42
    34.9400        34
    34.9600        44
    34.9800        44
    35.0000        38
    35.0200        26
    35.0400        62
    35.0600        34
    35.0800        50
    35.1000        46
    35.1200        42
    35.1400        50
    35.1600        46
    35.1800        44
    35.2000        46
    35.2200        34
    35.2400        46
    35.2600        40
    35.2800        62
    35.3000        48
    35.3200        44
    35.3400        40
    35.3600        42
    35.3800        50
    35.4000        42
    35.4200        40
    35.4400        26
    35.4600        46
    35.4800        42
    35.5000        44
    35.5200        30
    35.5400        50
    35.5600        42
    35.5800        58
    35.6000        46
    35.6200        48
    35.6400        28
    35.6600        52
    35.6800        40
    35.7000        28
    35.7200        46
    35.7400        44
    35.7600        46
    35.7800        48
    35.8000        40
    35.8200        48
    35.8400        58
    35.8600        40
    35.8800        38
    35.9000        46
    35.9200        66
    35.9400        46
    35.9600        54
    35.9800        52
    36.0000        46
    36.0200        52
    36.0400        54
    36.0600        50
    36.0800        74
    36.1000        62
    36.1200        62
    36.1400        78
    36.1600        64
    36.1800        90
    36.2000        80
    36.2200        78
    36.2400        82
    36.2600        84
    36.2800        68
    36.3000        64
    36.3200        66
    36.3400        56
    36.3600        66
    36.3800        50
    36.4000        46
    36.4200        56
    36.4400        38
    36.4600        28
    36.4800        34
    36.5000        50
    36.5200        40
    36.5400        38
    36.5600        50
    36.5800        46
    36.6000        34
    36.6200        42
    36.6400        54
    36.6600        34
    36.6800        50
    36.7000        36
    36.7200        36
    36.7400        42
    36.7600        28
    36.7800        36
    36.8000        44
    36.8200        36
    36.8400        52
    36.8600        28
    36.8800        38
    36.9000        42
    36.9200        34
    36.9400        34
    36.9600        52
    36.9800        36
    37.0000        54
    37.0200        34
    37.0400        40
    37.0600        46
    37.0800        32
    37.1000        44
    37.1200        40
    37.1400        42
    37.1600        42
    37.1800        34
    37.2000        50
    37.2200        34
    37.2400        32
    37.2600        40
    37.2800        40
    37.3000        44
    37.3200        40
    37.3400        38
    37.3600        32
    37.3800        52
    37.4000        42
    37.4200        44
    37.4400        42
    37.4600        46
    37.4800        56
    37.5000        36
    37.5200        34
    37.5400        36
    37.5600        38
    37.5800        38
    37.6000        36
    37.6200        48
    37.6400        40
    37.6600        46
    37.6800        38
    37.7000        36
    37.7200        48
    37.7400        42
    37.7600        46
    37.7800        42
    37.8000        32
    37.8200        44
    37.8400        52
    37.8600        44
    37.8800        44
    37.9000        36
    37.9200        38
    37.9400        38
    37.9600        46
    37.9800        38
    38.0000        46
    38.0200        38
    38.0400        42
    38.0600        40
    38.0800        50
    38.1000        36
    38.1200        40
    38.1400        38
    38.1600        30
    38.1800        42
    38.2000        40
    38.2200        36
    38.2400        46
    38.2600        52
    38.2800        46
    38.3000        34
    38.3200        58
    38.3400        36
    38.3600        44
    38.3800        48
    38.4000        46
    38.4200        60
    38.4400        38
    38.4600        58
    38.4800        44
    38.5000        52
    38.5200        52
    38.5400        66
    38.5600        34
    38.5800        56
    38.6000        32
    38.6200        38
    38.6400        40
    38.6600        36
    38.6800        56
    38.7000        38
    38.7200        50
    38.7400        46
    38.7600        42
    38.7800        44
    38.8000        42
    38.8200        36
    38.8400        48
    38.8600        52
    38.8800        50
    38.9000        42
    38.9200        48
    38.9400        52
    38.9600        68
    38.9800        54
    39.0000        50
    39.0200        58
    39.0400        40
    39.0600        64
    39.0800        46
    39.1000        64
    39.1200        70
    39.1400        62
    39.1600        74
    39.1800        70
    39.2000        98
    39.2200        90
    39.2400       106
    39.2600       136
    39.2800       142
    39.3000       150
    39.3200       172
    39.3400       212
    39.3600       254
    39.3800       272
    39.4000       322
    39.4200       316
    39.4400       360
    39.4600       352
    39.4800       392
    39.5000       378
    39.5200       302
    39.5400       308
    39.5600       290
    39.5800       260
    39.6000       214
    39.6200       218
    39.6400       178
    39.6600       150
    39.6800       126
    39.7000       100
    39.7200        84
    39.7400        96
    39.7600        74
    39.7800        72
    39.8000        72
    39.8200        56
    39.8400        62
    39.8600        42
    39.8800        46
    39.9000        44
    39.9200        48
    39.9400        48
    39.9600        40
    39.9800        42
    40.0000        44
    40.0200        50
    40.0400        46
    40.0600        42
    40.0800        46
    40.1000        32
    40.1200        56
    40.1400        46
    40.1600        42
    40.1800        32
    40.2000        38
    40.2200        42
    40.2400        44
    40.2600        44
    40.2800        44
    40.3000        38
    40.3200        42
    40.3400        46
    40.3600        48
    40.3800        42
    40.4000        46
    40.4200        38
    40.4400        48
    40.4600        40
    40.4800        54
    40.5000        40
    40.5200        52
    40.5400        60
    40.5600        70
    40.5800        80
    40.6000        76
    40.6200        78
    40.6400       110
    40.6600       104
    40.6800       110
    40.7000       122
    40.7200        88
    40.7400       142
    40.7600       102
    40.7800       112
    40.8000        80
    40.8200        90
    40.8400        68
    40.8600        68
    40.8800        50
    40.9000        50
    40.9200        46
    40.9400        46
    40.9600        44
    40.9800        36
    41.0000        34
    41.0200        38
    41.0400        34
    41.0600        40
    41.0800        34
    41.1000        48
    41.1200        34
    41.1400        30
    41.1600        30
    41.1800        38
    41.2000        40
    41.2200        36
    41.2400        26
    41.2600        28
    41.2800        28
    41.3000        46
    41.3200        42
    41.3400        40
    41.3600        42
    41.3800        28
    41.4000        28
    41.4200        42
    41.4400        34
    41.4600        30
    41.4800        42
    41.5000        46
    41.5200        42
    41.5400        28
    41.5600        34
    41.5800        32
    41.6000        28
    41.6200        28
    41.6400        44
    41.6600        42
    41.6800        40
    41.7000        34
    41.7200        48
    41.7400        26
    41.7600        40
    41.7800        32
    41.8000        28
    41.8200        22
    41.8400        34
    41.8600        32
    41.8800        30
    41.9000        40
    41.9200        28
    41.9400        44
    41.9600        40
    41.9800        30
    42.0000        46
    42.0200        36
    42.0400        36
    42.0600        38
    42.0800        50
    42.1000        34
    42.1200        42
    42.1400        46
    42.1600        50
    42.1800        42
    42.2000        40
    42.2200        52
    42.2400        52
    42.2600        44
    42.2800        48
    42.3000        44
    42.3200        42
    42.3400        40
    42.3600        42
    42.3800        36
    42.4000        44
    42.4200        36
    42.4400        46
    42.4600        32
    42.4800        50
    42.5000        44
    42.5200        42
    42.5400        48
    42.5600        42
    42.5800        42
    42.6000        30
    42.6200        42
    42.6400        46
    42.6600        38
    42.6800        32
    42.7000        36
    42.7200        48
    42.7400        34
    42.7600        30
    42.7800        32
    42.8000        30
    42.8200        34
    42.8400        22
    42.8600        34
    42.8800        32
    42.9000        36
    42.9200        26
    42.9400        34
    42.9600        32
    42.9800        34
    43.0000        40
    43.0200        42
    43.0400        40
    43.0600        34
    43.0800        36
    43.1000        38
    43.1200        32
    43.1400        34
    43.1600        16
    43.1800        34
    43.2000        26
    43.2200        30
    43.2400        38
    43.2600        40
    43.2800        40
    43.3000        34
    43.3200        40
    43.3400        40
    43.3600        34
    43.3800        36
    43.4000        18
    43.4200        42
    43.4400        38
    43.4600        28
    43.4800        28
    43.5000        48
    43.5200        30
    43.5400        36
    43.5600        38
    43.5800        40
    43.6000        34
    43.6200        30
    43.6400        40
    43.6600        32
    43.6800        36
    43.7000        18
    43.7200        36
    43.7400        44
    43.7600        34
    43.7800        32
    43.8000        32
    43.8200        32
    43.8400        38
    43.8600        36
    43.8800        24
    43.9000        46
    43.9200        34
    43.9400        26
    43.9600        24
    43.9800        36
    44.0000        26
    44.0200        32
    44.0400        22
    44.0600        38
    44.0800        30
    44.1000        34
    44.1200        34
    44.1400        32
    44.1600        30
    44.1800        36
    44.2000        36
    44.2200        30
    44.2400        40
    44.2600        46
    44.2800        34
    44.3000        24
    44.3200        26
    44.3400        28
    44.3600        30
    44.3800        24
    44.4000        36
    44.4200        30
    44.4400        44
    44.4600        44
    44.4800        44
    44.5000        26
    44.5200        48
    44.5400        48
    44.5600        34
    44.5800        44
    44.6000        52
    44.6200        40
    44.6400        36
    44.6600        38
    44.6800        48
    44.7000        42
    44.7200        42
    44.7400        38
    44.7600        46
    44.7800        48
    44.8000        50
    44.8200        44
    44.8400        46
    44.8600        34
    44.8800        52
    44.9000        46
    44.9200        32
    44.9400        36
    44.9600        34
    44.9800        38
    45.0000        40
    45.0200        46
    45.0400        36
    45.0600        36
    45.0800        32
    45.1000        38
    45.1200        44
    45.1400        54
    45.1600        54
    45.1800        52
    45.2000        64
    45.2200        64
    45.2400        80
    45.2600        76
    45.2800        88
    45.3000       102
    45.3200       142
    45.3400       154
    45.3600       164
    45.3800       160
    45.4000       196
    45.4200       174
    45.4400       170
    45.4600       168
    45.4800       136
    45.5000       144
    45.5200       110
    45.5400       116
    45.5600        90
    45.5800        90
    45.6000        54
    45.6200        62
    45.6400        44
    45.6600        60
    45.6800        38
    45.7000        46
    45.7200        50
    45.7400        46
    45.7600        34
    45.7800        40
    45.8000        52
    45.8200        24
    45.8400        46
    45.8600        40
    45.8800        36
    45.9000        26
    45.9200        32
    45.9400        38
    45.9600        36
    45.9800        36
    46.0000        32
    46.0200        38
    46.0400        40
    46.0600        34
    46.0800        38
    46.1000        36
    46.1200        34
    46.1400        30
    46.1600        30
    46.1800        32
    46.2000        34
    46.2200        28
    46.2400        28
    46.2600        38
    46.2800        36
    46.3000        32
    46.3200        16
    46.3400        46
    46.3600        28
    46.3800        28
    46.4000        38
    46.4200        24
    46.4400        36
    46.4600        32
    46.4800        30
    46.5000        38
    46.5200        38
    46.5400        30
    46.5600        28
    46.5800        32
    46.6000        26
    46.6200        26
    46.6400        34
    46.6600        42
    46.6800        32
    46.7000        40
    46.7200        28
    46.7400        32
    46.7600        46
    46.7800        28
    46.8000        38
    46.8200        38
    46.8400        38
    46.8600        34
    46.8800        42
    46.9000        30
    46.9200        36
    46.9400        44
    46.9600        34
    46.9800        42
    47.0000        32
    47.0200        38
    47.0400        34
    47.0600        46
    47.0800        40
    47.1000        56
    47.1200        44
    47.1400        50
    47.1600        62
    47.1800        52
    47.2000        56
    47.2200        56
    47.2400        54
    47.2600        54
    47.2800        64
    47.3000        74
    47.3200        92
    47.3400        84
    47.3600        86
    47.3800        78
    47.4000       114
    47.4200        98
    47.4400       116
    47.4600       122
    47.4800       136
    47.5000       166
    47.5200       142
    47.5400       228
    47.5600       198
    47.5800       240
    47.6000       264
    47.6200       290
    47.6400       334
    47.6600       396
    47.6800       408
    47.7000       370
    47.7200       378
    47.7400       320
    47.7600       290
    47.7800       284
    47.8000       222
    47.8200       238
    47.8400       180
    47.8600       172
    47.8800       120
    47.9000       118
    47.9200        86
    47.9400        90
    47.9600        68
    47.9800        58
    48.0000        48
    48.0200        50
    48.0400        40
    48.0600        46
    48.0800        50
    48.1000        44
    48.1200        56
    48.1400        50
    48.1600        44
    48.1800        44
    48.2000        28
    48.2200        28
    48.2400        28
    48.2600        34
    48.2800        40
    48.3000        46
    48.3200        22
    48.3400        34
    48.3600        40
    48.3800        30
    48.4000        50
    48.4200        24
    48.4400        32
    48.4600        36
    48.4800        34
    48.5000        32
    48.5200        42
    48.5400        42
    48.5600        42
    48.5800        30
    48.6000        34
    48.6200        32
    48.6400        38
    48.6600        28
    48.6800        32
    48.7000        40
    48.7200        38
    48.7400        26
    48.7600        22
    48.7800        34
    48.8000        40
    48.8200        38
    48.8400        30
    48.8600        38
    48.8800        28
    48.9000        34
    48.9200        38
    48.9400        38
    48.9600        26
    48.9800        34
    49.0000        42
    49.0200        32
    49.0400        32
    49.0600        34
    49.0800        56
    49.1000        34
    49.1200        30
    49.1400        42
    49.1600        40
    49.1800        42
    49.2000        32
    49.2200        48
    49.2400        38
    49.2600        54
    49.2800        42
    49.3000        48
    49.3200        56
    49.3400        40
    49.3600        46
    49.3800        38
    49.4000        58
    49.4200        32
    49.4400        38
    49.4600        40
    49.4800        40
    49.5000        50
    49.5200        44
    49.5400        42
    49.5600        32
    49.5800        36
    49.6000        32
    49.6200        40
    49.6400        32
    49.6600        24
    49.6800        34
    49.7000        40
    49.7200        36
    49.7400        32
    49.7600        34
    49.7800        42
    49.8000        34
    49.8200        38
    49.8400        28
    49.8600        32
    49.8800        28
    49.9000        20
    49.9200        44
    49.9400        30
    49.9600        48
    49.9800        36
    50.0000        42
    50.0200        40
    50.0400        34
    50.0600        38
    50.0800        48
    50.1000        34
    50.1200        34
    50.1400        36
    50.1600        36
    50.1800        36
    50.2000        36
    50.2200        40
    50.2400        40
    50.2600        48
    50.2800        40
    50.3000        46
    50.3200        26
    50.3400        28
    50.3600        36
    50.3800        32
    50.4000        38
    50.4200        30
    50.4400        34
    50.4600        36
    50.4800        30
    50.5000        48
    50.5200        46
    50.5400        22
    50.5600        36
    50.5800        40
    50.6000        30
    50.6200        32
    50.6400        26
    50.6600        44
    50.6800        40
    50.7000        32
    50.7200        24
    50.7400        36
    50.7600        32
    50.7800        24
    50.8000        26
    50.8200        20
    50.8400        32
    50.8600        34
    50.8800        34
    50.9000        22
    50.9200        34
    50.9400        18
    50.9600        44
    50.9800        34
    51.0000        32
    51.0200        34
    51.0400        36
    51.0600        30
    51.0800        32
    51.1000        32
    51.1200        24
    51.1400        48
    51.1600        30
    51.1800        34
    51.2000        28
    51.2200        28
    51.2400        24
    51.2600        46
    51.2800        38
    51.3000        44
    51.3200        32
    51.3400        30
    51.3600        24
    51.3800        32
    51.4000        24
    51.4200        30
    51.4400        26
    51.4600        34
    51.4800        32
    51.5000        32
    51.5200        30
    51.5400        34
    51.5600        28
    51.5800        32
    51.6000        22
    51.6200        38
    51.6400        36
    51.6600        34
    51.6800        24
    51.7000        28
    51.7200        30
    51.7400        28
    51.7600        32
    51.7800        44
    51.8000        38
    51.8200        26
    51.8400        48
    51.8600        40
    51.8800        40
    51.9000        50
    51.9200        26
    51.9400        54
    51.9600        54
    51.9800        52
    52.0000        56
    52.0200        52
    52.0400        66
    52.0600        72
    52.0800        98
    52.1000       122
    52.1200       116
    52.1400       146
    52.1600       148
    52.1800       210
    52.2000       226
    52.2200       224
    52.2400       244
    52.2600       238
    52.2800       222
    52.3000       214
    52.3200       228
    52.3400       204
    52.3600       198
    52.3800       158
    52.4000       170
    52.4200       128
    52.4400       106
    52.4600        96
    52.4800        88
    52.5000        68
    52.5200        70
    52.5400        46
    52.5600        44
    52.5800        38
    52.6000        42
    52.6200        54
    52.6400        36
    52.6600        36
    52.6800        36
    52.7000        40
    52.7200        44
    52.7400        54
    52.7600        42
    52.7800        36
    52.8000        38
    52.8200        42
    52.8400        30
    52.8600        32
    52.8800        32
    52.9000        34
    52.9200        26
    52.9400        34
    52.9600        30
    52.9800        38
    53.0000        26
    53.0200        28
    53.0400        28
    53.0600        38
    53.0800        30
    53.1000        34
    53.1200        20
    53.1400        26
    53.1600        20
    53.1800        36
    53.2000        32
    53.2200        32
    53.2400        30
    53.2600        30
    53.2800        30
    53.3000        32
    53.3200        36
    53.3400        48
    53.3600        30
    53.3800        30
    53.4000        24
    53.4200        28
    53.4400        38
    53.4600        28
    53.4800        30
    53.5000        30
    53.5200        36
    53.5400        34
    53.5600        38
    53.5800        24
    53.6000        42
    53.6200        32
    53.6400        30
    53.6600        28
    53.6800        54
    53.7000        46
    53.7200        50
    53.7400        40
    53.7600        44
    53.7800        40
    53.8000        42
    53.8200        40
    53.8400        26
    53.8600        38
    53.8800        36
    53.9000        44
    53.9200        40
    53.9400        46
    53.9600        36
    53.9800        48
    54.0000        38
    54.0200        28
    54.0400        38
    54.0600        36
    54.0800        40
    54.1000        40
    54.1200        38
    54.1400        34
    54.1600        36
    54.1800        28
    54.2000        40
    54.2200        34
    54.2400        42
    54.2600        36
    54.2800        44
    54.3000        38
    54.3200        40
    54.3400        36
    54.3600        30
    54.3800        44
    54.4000        40
    54.4200        30
    54.4400        38
    54.4600        42
    54.4800        26
    54.5000        30
    54.5200        44
    54.5400        46
    54.5600        44
    54.5800        54
    54.6000        36
    54.6200        54
    54.6400        44
    54.6600        46
    54.6800        38
    54.7000        48
    54.7200        38
    54.7400        38
    54.7600        36
    54.7800        34
    54.8000        44
    54.8200        52
    54.8400        38
    54.8600        34
    54.8800        44
    54.9000        50
    54.9200        44
    54.9400        44
    54.9600        38
    54.9800        46
    55.0000        36
    55.0200        50
    55.0400        36
    55.0600        30
    55.0800        48
    55.1000        40
    55.1200        40
    55.1400        36
    55.1600        40
    55.1800        38
    55.2000        56
    55.2200        44
    55.2400        36
    55.2600        38
    55.2800        34
    55.3000        42
    55.3200        40
    55.3400        46
    55.3600        50
    55.3800        50
    55.4000        36
    55.4200        44
    55.4400        46
    55.4600        36
    55.4800        40
    55.5000        34
    55.5200        34
    55.5400        40
    55.5600        52
    55.5800        58
    55.6000        42
    55.6200        56
    55.6400        50
    55.6600        56
    55.6800        50
    55.7000        58
    55.7200        54
    55.7400        48
    55.7600        60
    55.7800        38
    55.8000        46
    55.8200        40
    55.8400        48
    55.8600        42
    55.8800        36
    55.9000        30
    55.9200        46
    55.9400        30
    55.9600        48
    55.9800        34
    56.0000        30
    56.0200        40
    56.0400        34
    56.0600        38
    56.0800        42
    56.1000        46
    56.1200        32
    56.1400        36
    56.1600        34
    56.1800        42
    56.2000        38
    56.2200        32
    56.2400        44
    56.2600        36
    56.2800        44
    56.3000        52
    56.3200        50
    56.3400        42
    56.3600        52
    56.3800        80
    56.4000        48
    56.4200        68
    56.4400        56
    56.4600        74
    56.4800        60
    56.5000        58
    56.5200        38
    56.5400        46
    56.5600        44
    56.5800        44
    56.6000        48
    56.6200        42
    56.6400        42
    56.6600        40
    56.6800        38
    56.7000        26
    56.7200        30
    56.7400        36
    56.7600        30
    56.7800        34
    56.8000        30
    56.8200        22
    56.8400        42
    56.8600        28
    56.8800        32
    56.9000        36
    56.9200        34
    56.9400        32
    56.9600        20
    56.9800        34
    57.0000        26
    57.0200        26
    57.0400        28
    57.0600        38
    57.0800        34
    57.1000        34
    57.1200        28
    57.1400        26
    57.1600        36
    57.1800        24
    57.2000        22
    57.2200        30
    57.2400        40
    57.2600        46
    57.2800        32
    57.3000        34
    57.3200        24
    57.3400        26
    57.3600        22
    57.3800        22
    57.4000        30
    57.4200        30
    57.4400        28
    57.4600        28
    57.4800        24
    57.5000        34
    57.5200        20
    57.5400        26
    57.5600        30
    57.5800        32
    57.6000        24
    57.6200        30
    57.6400        34
    57.6600        32
    57.6800        32
    57.7000        28
    57.7200        40
    57.7400        26
    57.7600        26
    57.7800        42
    57.8000        32
    57.8200        44
    57.8400        36
    57.8600        38
    57.8800        22
    57.9000        38
    57.9200        24
    57.9400        26
    57.9600        34
    57.9800        38
    58.0000        30
    58.0200        28
    58.0400        34
    58.0600        26
    58.0800        28
    58.1000        34
    58.1200        28
    58.1400        36
    58.1600        36
    58.1800        32
    58.2000        34
    58.2200        28
    58.2400        40
    58.2600        34
    58.2800        34
    58.3000        24
    58.3200        34
    58.3400        28
    58.3600        32
    58.3800        28
    58.4000        22
    58.4200        42
    58.4400        24
    58.4600        28
    58.4800        28
    58.5000        28
    58.5200        20
    58.5400        32
    58.5600        32
    58.5800        30
    58.6000        28
    58.6200        32
    58.6400        30
    58.6600        36
    58.6800        50
    58.7000        44
    58.7200        48
    58.7400        44
    58.7600        62
    58.7800        44
    58.8000        64
    58.8200        48
    58.8400        42
    58.8600        52
    58.8800        42
    58.9000        50
    58.9200        40
    58.9400        38
    58.9600        60
    58.9800        52
    59.0000        58
    59.0200        56
    59.0400        50
    59.0600        46
    59.0800        42
    59.1000        36
    59.1200        40
    59.1400        44
    59.1600        22
    59.1800        44
    59.2000        36
    59.2200        46
    59.2400        26
    59.2600        24
    59.2800        28
    59.3000        32
    59.3200        36
    59.3400        36
    59.3600        34
    59.3800        38
    59.4000        30
    59.4200        36
    59.4400        26
    59.4600        46
    59.4800        40
    59.5000        26
    59.5200        34
    59.5400        34
    59.5600        32
    59.5800        22
    59.6000        34
    59.6200        38
    59.6400        26
    59.6600        32
    59.6800        26
    59.7000        40
    59.7200        34
    59.7400        38
    59.7600        34
    59.7800        26
    59.8000        30
    59.8200        28
    59.8400        32
    59.8600        34
    59.8800        44
    59.9000        44
    59.9200        42
    59.9400        40
    59.9600        28
    59.9800        30
    60.0000        28
    60.0200        40
    60.0400        36
    60.0600        36
    60.0800        30
    60.1000        30
    60.1200        38
    60.1400        38
    60.1600        38
    60.1800        28
    60.2000        32
    60.2200        24
    60.2400        30
    60.2600        28
    60.2800        48
    60.3000        28
    60.3200        40
    60.3400        20
    60.3600        36
    60.3800        30
    60.4000        30
    60.4200        28
    60.4400        44
    60.4600        32
    60.4800        34
    60.5000        20
    60.5200        48
    60.5400        42
    60.5600        34
    60.5800        40
    60.6000        28
    60.6200        40
    60.6400        34
    60.6600        28
    60.6800        26
    60.7000        40
    60.7200        32
    60.7400        34
    60.7600        34
    60.7800        26
    60.8000        38
    60.8200        36
    60.8400        42
    60.8600        26
    60.8800        30
    60.9000        28
    60.9200        36
    60.9400        50
    60.9600        46
    60.9800        32
    61.0000        38
    61.0200        28
    61.0400        34
    61.0600        44
    61.0800        38
    61.1000        42
    61.1200        40
    61.1400        44
    61.1600        38
    61.1800        48
    61.2000        34
    61.2200        46
    61.2400        52
    61.2600        44
    61.2800        52
    61.3000        62
    61.3200        64
    61.3400        64
    61.3600        66
    61.3800        60
    61.4000        54
    61.4200        72
    61.4400        64
    61.4600        50
    61.4800        62
    61.5000        74
    61.5200        52
    61.5400        70
    61.5600        80
    61.5800        60
    61.6000        82
    61.6200        58
    61.6400        76
    61.6600        84
    61.6800        90
    61.7000       126
    61.7200        88
    61.7400       102
    61.7600        92
    61.7800       112
    61.8000       110
    61.8200       124
    61.8400       122
    61.8600       156
    61.8800       168
    61.9000       148
    61.9200       150
    61.9400       154
    61.9600       168
    61.9800       176
    62.0000       164
    62.0200       202
    62.0400       174
    62.0600       174
    62.0800       150
    62.1000       148
    62.1200       152
    62.1400       142
    62.1600       126
    62.1800       108
    62.2000        88
    62.2200        96
    62.2400       106
    62.2600       108
    62.2800       104
    62.3000        74
    62.3200        72
    62.3400        74
    62.3600        80
    62.3800        60
    62.4000        46
    62.4200        48
    62.4400        64
    62.4600        38
    62.4800        32
    62.5000        40
    62.5200        46
    62.5400        40
    62.5600        44
    62.5800        34
    62.6000        46
    62.6200        44
    62.6400        40
    62.6600        42
    62.6800        30
    62.7000        44
    62.7200        28
    62.7400        28
    62.7600        26
    62.7800        38
    62.8000        34
    62.8200        32
    62.8400        24
    62.8600        28
    62.8800        36
    62.9000        28
    62.9200        30
    62.9400        30
    62.9600        24
    62.9800        16
    63.0000        34
    63.0200        40
    63.0400        38
    63.0600        22
    63.0800        28
    63.1000        22
    63.1200        36
    63.1400        24
    63.1600        30
    63.1800        30
    63.2000        40
    63.2200        22
    63.2400        34
    63.2600        30
    63.2800        28
    63.3000        26
    63.3200        36
    63.3400        30
    63.3600        32
    63.3800        30
    63.4000        18
    63.4200        38
    63.4400        32
    63.4600        24
    63.4800        30
    63.5000        32
    63.5200        30
    63.5400        32
    63.5600        30
    63.5800        20
    63.6000        30
    63.6200        38
    63.6400        38
    63.6600        24
    63.6800        40
    63.7000        34
    63.7200        26
    63.7400        34
    63.7600        32
    63.7800        36
    63.8000        26
    63.8200        32
    63.8400        40
    63.8600        34
    63.8800        38
    63.9000        28
    63.9200        32
    63.9400        30
    63.9600        22
    63.9800        36
    64.0000        28
    64.0200        30
    64.0400        24
    64.0600        32
    64.0800        26
    64.1000        26
    64.1200        32
    64.1400        38
    64.1600        26
    64.1800        34
    64.2000        52
    64.2200        34
    64.2400        32
    64.2600        28
    64.2800        24
    64.3000        32
    64.3200        32
    64.3400        34
    64.3600        28
    64.3800        26
    64.4000        20
    64.4200        20
    64.4400        24
    64.4600        26
    64.4800        44
    64.5000        34
    64.5200        30
    64.5400        28
    64.5600        32
    64.5800        26
    64.6000        36
    64.6200        28
    64.6400        22
    64.6600        22
    64.6800        24
    64.7000        34
    64.7200        26
    64.7400        36
    64.7600        18
    64.7800        36
    64.8000        24
    64.8200        28
    64.8400        36
    64.8600        30
    64.8800        32
    64.9000        32
    64.9200        28
    64.9400        36
    64.9600        30
    64.9800        28
    65.0000        44
