/////////////////////////////////////////////////////////////////////////////////
/// Profile Data Ascii Dump (XRD)                                             ///
/////////////////////////////////////////////////////////////////////////////////

  Group     : Swayze
  Data      : GSB
  File Name : GSB.RAW

# Profile Datafile
          comment             = Olivine-60u-Hoefen 
          date & time         = 08-04-28 06:47:29 

# Measurement Condition
    X-ray tube
          target              = Cu 
          voltage             = 40.0 (kV)
          current             = 30.0 (mA)
    Slits
          divergence slit     = 2.00000 (deg) 
          scatter slit        = 2.00000 (deg) 
          receiving slit      = 0.15000 (mm)  
    Scanning
          drive axis          = Theta-2Theta 
          scan range          =    4.000 -   65.000 
          scan mode           = Continuous Scan 
          scan speed          =   2.0000 (deg/min) 
          sampling pitch      =   0.0200 (deg) 
          preset time         =   0.60 (sec) 

# Data      [ Total No. = 3051 ]
  <2Theta>   <   I   >
     4.0000       176
     4.0200       202
     4.0400       190
     4.0600       192
     4.0800       192
     4.1000       198
     4.1200       210
     4.1400       172
     4.1600       172
     4.1800       188
     4.2000       184
     4.2200       186
     4.2400       194
     4.2600       162
     4.2800       182
     4.3000       202
     4.3200       200
     4.3400       156
     4.3600       178
     4.3800       178
     4.4000       178
     4.4200       186
     4.4400       164
     4.4600       166
     4.4800       168
     4.5000       166
     4.5200       168
     4.5400       134
     4.5600       204
     4.5800       152
     4.6000       176
     4.6200       162
     4.6400       170
     4.6600       154
     4.6800       182
     4.7000       178
     4.7200       182
     4.7400       162
     4.7600       174
     4.7800       150
     4.8000       160
     4.8200       182
     4.8400       158
     4.8600       168
     4.8800       138
     4.9000       188
     4.9200       164
     4.9400       146
     4.9600       184
     4.9800       178
     5.0000       172
     5.0200       164
     5.0400       182
     5.0600       174
     5.0800       178
     5.1000       162
     5.1200       154
     5.1400       154
     5.1600       188
     5.1800       156
     5.2000       172
     5.2200       202
     5.2400       176
     5.2600       162
     5.2800       132
     5.3000       178
     5.3200       164
     5.3400       156
     5.3600       164
     5.3800       172
     5.4000       162
     5.4200       158
     5.4400       164
     5.4600       140
     5.4800       162
     5.5000       176
     5.5200       172
     5.5400       154
     5.5600       158
     5.5800       164
     5.6000       162
     5.6200       166
     5.6400       166
     5.6600       162
     5.6800       150
     5.7000       210
     5.7200       154
     5.7400       168
     5.7600       166
     5.7800       180
     5.8000       154
     5.8200       176
     5.8400       162
     5.8600       144
     5.8800       170
     5.9000       172
     5.9200       164
     5.9400       162
     5.9600       178
     5.9800       164
     6.0000       162
     6.0200       166
     6.0400       182
     6.0600       152
     6.0800       154
     6.1000       140
     6.1200       162
     6.1400       142
     6.1600       158
     6.1800       148
     6.2000       180
     6.2200       134
     6.2400       180
     6.2600       156
     6.2800       150
     6.3000       168
     6.3200       142
     6.3400       160
     6.3600       160
     6.3800       166
     6.4000       142
     6.4200       170
     6.4400       148
     6.4600       130
     6.4800       134
     6.5000       126
     6.5200       134
     6.5400       138
     6.5600       118
     6.5800       134
     6.6000       168
     6.6200       146
     6.6400       122
     6.6600       138
     6.6800       150
     6.7000       132
     6.7200       138
     6.7400       116
     6.7600       132
     6.7800       148
     6.8000       132
     6.8200       128
     6.8400       128
     6.8600       110
     6.8800       116
     6.9000       120
     6.9200       140
     6.9400       134
     6.9600       120
     6.9800       132
     7.0000       106
     7.0200       148
     7.0400       118
     7.0600       128
     7.0800       102
     7.1000       112
     7.1200       108
     7.1400       132
     7.1600       114
     7.1800       126
     7.2000       108
     7.2200       122
     7.2400       112
     7.2600       120
     7.2800       122
     7.3000       134
     7.3200       106
     7.3400       130
     7.3600       110
     7.3800       112
     7.4000       104
     7.4200       100
     7.4400       120
     7.4600       120
     7.4800       110
     7.5000       112
     7.5200       106
     7.5400       120
     7.5600       122
     7.5800       118
     7.6000       124
     7.6200       124
     7.6400       138
     7.6600       110
     7.6800       112
     7.7000       116
     7.7200       120
     7.7400       126
     7.7600       108
     7.7800       150
     7.8000       110
     7.8200       124
     7.8400       138
     7.8600       128
     7.8800       114
     7.9000       136
     7.9200       114
     7.9400       126
     7.9600       110
     7.9800       140
     8.0000       108
     8.0200       116
     8.0400       106
     8.0600        98
     8.0800       106
     8.1000       106
     8.1200       124
     8.1400       106
     8.1600       136
     8.1800       110
     8.2000       126
     8.2200       118
     8.2400       110
     8.2600       106
     8.2800        92
     8.3000       116
     8.3200       114
     8.3400       126
     8.3600       128
     8.3800       112
     8.4000       112
     8.4200       116
     8.4400       116
     8.4600       122
     8.4800       118
     8.5000       108
     8.5200       104
     8.5400       144
     8.5600       114
     8.5800       122
     8.6000       104
     8.6200       130
     8.6400       112
     8.6600       112
     8.6800       104
     8.7000       118
     8.7200       104
     8.7400       120
     8.7600       120
     8.7800       110
     8.8000       130
     8.8200       114
     8.8400       134
     8.8600       122
     8.8800       120
     8.9000        98
     8.9200       118
     8.9400       122
     8.9600       106
     8.9800        92
     9.0000       140
     9.0200       124
     9.0400       126
     9.0600       114
     9.0800       116
     9.1000        92
     9.1200       114
     9.1400       122
     9.1600       120
     9.1800       118
     9.2000       104
     9.2200       110
     9.2400       102
     9.2600       116
     9.2800       122
     9.3000       104
     9.3200       124
     9.3400       122
     9.3600       102
     9.3800       118
     9.4000       112
     9.4200       138
     9.4400       136
     9.4600        98
     9.4800       124
     9.5000       106
     9.5200       104
     9.5400       110
     9.5600       100
     9.5800       106
     9.6000        96
     9.6200        96
     9.6400       136
     9.6600       128
     9.6800       104
     9.7000       128
     9.7200       128
     9.7400       120
     9.7600       116
     9.7800       100
     9.8000       126
     9.8200       100
     9.8400       120
     9.8600       108
     9.8800       114
     9.9000       122
     9.9200       112
     9.9400        90
     9.9600       124
     9.9800       116
    10.0000       116
    10.0200       108
    10.0400       116
    10.0600       108
    10.0800       108
    10.1000       106
    10.1200       108
    10.1400       106
    10.1600        88
    10.1800       116
    10.2000       102
    10.2200       106
    10.2400       104
    10.2600        90
    10.2800       110
    10.3000       128
    10.3200       102
    10.3400        88
    10.3600       110
    10.3800       104
    10.4000        94
    10.4200       104
    10.4400       102
    10.4600        90
    10.4800       132
    10.5000        84
    10.5200       118
    10.5400       112
    10.5600        92
    10.5800       116
    10.6000       104
    10.6200        84
    10.6400        88
    10.6600        88
    10.6800       116
    10.7000       104
    10.7200        94
    10.7400       128
    10.7600       116
    10.7800        92
    10.8000        90
    10.8200        92
    10.8400       102
    10.8600       100
    10.8800        92
    10.9000        88
    10.9200        78
    10.9400        90
    10.9600       104
    10.9800        84
    11.0000        84
    11.0200       106
    11.0400        90
    11.0600        88
    11.0800        90
    11.1000       102
    11.1200        78
    11.1400       100
    11.1600        94
    11.1800        82
    11.2000        88
    11.2200        92
    11.2400       100
    11.2600       104
    11.2800        88
    11.3000        80
    11.3200        84
    11.3400        90
    11.3600        86
    11.3800        68
    11.4000        82
    11.4200        90
    11.4400        90
    11.4600        86
    11.4800        84
    11.5000        76
    11.5200        84
    11.5400        84
    11.5600        76
    11.5800       100
    11.6000        86
    11.6200        94
    11.6400        86
    11.6600       102
    11.6800        90
    11.7000        76
    11.7200        84
    11.7400        88
    11.7600        90
    11.7800        92
    11.8000        98
    11.8200       104
    11.8400        98
    11.8600        78
    11.8800        80
    11.9000        72
    11.9200        84
    11.9400        88
    11.9600        82
    11.9800        72
    12.0000        80
    12.0200        82
    12.0400        78
    12.0600        80
    12.0800        88
    12.1000        94
    12.1200        88
    12.1400        78
    12.1600        84
    12.1800        90
    12.2000        72
    12.2200        70
    12.2400        98
    12.2600        86
    12.2800        90
    12.3000        82
    12.3200        56
    12.3400        74
    12.3600        76
    12.3800        84
    12.4000        80
    12.4200        74
    12.4400        70
    12.4600        96
    12.4800        92
    12.5000        54
    12.5200        66
    12.5400        70
    12.5600        84
    12.5800        76
    12.6000        86
    12.6200        74
    12.6400        82
    12.6600        82
    12.6800        72
    12.7000        88
    12.7200        80
    12.7400        74
    12.7600        90
    12.7800        58
    12.8000        72
    12.8200        74
    12.8400        64
    12.8600        60
    12.8800        76
    12.9000        80
    12.9200        80
    12.9400        76
    12.9600        72
    12.9800        84
    13.0000        72
    13.0200        76
    13.0400        82
    13.0600        58
    13.0800        64
    13.1000        66
    13.1200        74
    13.1400        64
    13.1600        88
    13.1800        74
    13.2000        84
    13.2200        94
    13.2400        74
    13.2600        74
    13.2800        76
    13.3000        68
    13.3200        72
    13.3400        86
    13.3600        52
    13.3800        56
    13.4000        68
    13.4200        64
    13.4400        62
    13.4600        72
    13.4800        82
    13.5000        90
    13.5200        70
    13.5400        58
    13.5600        64
    13.5800        80
    13.6000        86
    13.6200        64
    13.6400        70
    13.6600        76
    13.6800        74
    13.7000        68
    13.7200        84
    13.7400        64
    13.7600        56
    13.7800        74
    13.8000        68
    13.8200        64
    13.8400        74
    13.8600        78
    13.8800        80
    13.9000        72
    13.9200        74
    13.9400        66
    13.9600        74
    13.9800        88
    14.0000        62
    14.0200        60
    14.0400        74
    14.0600        68
    14.0800        78
    14.1000        72
    14.1200        84
    14.1400        52
    14.1600        70
    14.1800        78
    14.2000        60
    14.2200        74
    14.2400        66
    14.2600        74
    14.2800        54
    14.3000        66
    14.3200        54
    14.3400        86
    14.3600        60
    14.3800        62
    14.4000        78
    14.4200        52
    14.4400        64
    14.4600        60
    14.4800        54
    14.5000        72
    14.5200        60
    14.5400        60
    14.5600        74
    14.5800        66
    14.6000        72
    14.6200        60
    14.6400        70
    14.6600        68
    14.6800        60
    14.7000        72
    14.7200        76
    14.7400        68
    14.7600        74
    14.7800        72
    14.8000        72
    14.8200        60
    14.8400        70
    14.8600        72
    14.8800        64
    14.9000        60
    14.9200        60
    14.9400        62
    14.9600        58
    14.9800        70
    15.0000        64
    15.0200        62
    15.0400        54
    15.0600        60
    15.0800        60
    15.1000        66
    15.1200        64
    15.1400        80
    15.1600        68
    15.1800        56
    15.2000        82
    15.2200        66
    15.2400        70
    15.2600        64
    15.2800        68
    15.3000        50
    15.3200        62
    15.3400        64
    15.3600        64
    15.3800        68
    15.4000        56
    15.4200        76
    15.4400        68
    15.4600        72
    15.4800        72
    15.5000        48
    15.5200        60
    15.5400        62
    15.5600        64
    15.5800        54
    15.6000        42
    15.6200        76
    15.6400        54
    15.6600        66
    15.6800        70
    15.7000        60
    15.7200        68
    15.7400        70
    15.7600        76
    15.7800        72
    15.8000        48
    15.8200        66
    15.8400        74
    15.8600        66
    15.8800        84
    15.9000        50
    15.9200        62
    15.9400        66
    15.9600        68
    15.9800        52
    16.0000        56
    16.0200        72
    16.0400        64
    16.0600        74
    16.0800        54
    16.1000        58
    16.1200        62
    16.1400        62
    16.1600        48
    16.1800        48
    16.2000        54
    16.2200        40
    16.2400        76
    16.2600        52
    16.2800        66
    16.3000        84
    16.3200        56
    16.3400        82
    16.3600        56
    16.3800        62
    16.4000        68
    16.4200        64
    16.4400        64
    16.4600        60
    16.4800        54
    16.5000        72
    16.5200        46
    16.5400        72
    16.5600        66
    16.5800        70
    16.6000        62
    16.6200        80
    16.6400        42
    16.6600        64
    16.6800        66
    16.7000        60
    16.7200        76
    16.7400        60
    16.7600        64
    16.7800        62
    16.8000        74
    16.8200        72
    16.8400        74
    16.8600        82
    16.8800        72
    16.9000        78
    16.9200        92
    16.9400        90
    16.9600       104
    16.9800       112
    17.0000       114
    17.0200       114
    17.0400       128
    17.0600       162
    17.0800       208
    17.1000       184
    17.1200       208
    17.1400       226
    17.1600       228
    17.1800       258
    17.2000       306
    17.2200       380
    17.2400       414
    17.2600       460
    17.2800       398
    17.3000       388
    17.3200       296
    17.3400       230
    17.3600       140
    17.3800       108
    17.4000        86
    17.4200        78
    17.4400        64
    17.4600        76
    17.4800        64
    17.5000        64
    17.5200        64
    17.5400        66
    17.5600        68
    17.5800        66
    17.6000        68
    17.6200        40
    17.6400        48
    17.6600        50
    17.6800        58
    17.7000        66
    17.7200        52
    17.7400        56
    17.7600        62
    17.7800        64
    17.8000        78
    17.8200        58
    17.8400        64
    17.8600        54
    17.8800        52
    17.9000        66
    17.9200        68
    17.9400        48
    17.9600        40
    17.9800        38
    18.0000        54
    18.0200        56
    18.0400        42
    18.0600        64
    18.0800        52
    18.1000        72
    18.1200        48
    18.1400        56
    18.1600        56
    18.1800        56
    18.2000        58
    18.2200        46
    18.2400        46
    18.2600        72
    18.2800        58
    18.3000        56
    18.3200        44
    18.3400        58
    18.3600        56
    18.3800        64
    18.4000        70
    18.4200        40
    18.4400        60
    18.4600        60
    18.4800        54
    18.5000        60
    18.5200        60
    18.5400        56
    18.5600        56
    18.5800        58
    18.6000        62
    18.6200        56
    18.6400        56
    18.6600        54
    18.6800        66
    18.7000        54
    18.7200        60
    18.7400        44
    18.7600        66
    18.7800        54
    18.8000        54
    18.8200        62
    18.8400        46
    18.8600        52
    18.8800        72
    18.9000        56
    18.9200        60
    18.9400        52
    18.9600        60
    18.9800        54
    19.0000        56
    19.0200        58
    19.0400        54
    19.0600        66
    19.0800        62
    19.1000        50
    19.1200        54
    19.1400        54
    19.1600        58
    19.1800        48
    19.2000        52
    19.2200        50
    19.2400        64
    19.2600        64
    19.2800        62
    19.3000        62
    19.3200        48
    19.3400        54
    19.3600        56
    19.3800        46
    19.4000        50
    19.4200        62
    19.4400        48
    19.4600        54
    19.4800        58
    19.5000        62
    19.5200        60
    19.5400        58
    19.5600        46
    19.5800        54
    19.6000        64
    19.6200        56
    19.6400        48
    19.6600        44
    19.6800        52
    19.7000        50
    19.7200        54
    19.7400        54
    19.7600        48
    19.7800        64
    19.8000        48
    19.8200        58
    19.8400        56
    19.8600        48
    19.8800        62
    19.9000        50
    19.9200        58
    19.9400        60
    19.9600        50
    19.9800        52
    20.0000        56
    20.0200        56
    20.0400        48
    20.0600        54
    20.0800        52
    20.1000        54
    20.1200        64
    20.1400        54
    20.1600        46
    20.1800        50
    20.2000        48
    20.2200        56
    20.2400        60
    20.2600        52
    20.2800        64
    20.3000        54
    20.3200        50
    20.3400        58
    20.3600        50
    20.3800        56
    20.4000        54
    20.4200        50
    20.4400        38
    20.4600        66
    20.4800        56
    20.5000        62
    20.5200        58
    20.5400        50
    20.5600        50
    20.5800        40
    20.6000        48
    20.6200        38
    20.6400        46
    20.6600        38
    20.6800        54
    20.7000        36
    20.7200        50
    20.7400        48
    20.7600        52
    20.7800        48
    20.8000        48
    20.8200        48
    20.8400        42
    20.8600        62
    20.8800        56
    20.9000        54
    20.9200        44
    20.9400        48
    20.9600        44
    20.9800        38
    21.0000        48
    21.0200        40
    21.0400        48
    21.0600        58
    21.0800        46
    21.1000        52
    21.1200        50
    21.1400        58
    21.1600        50
    21.1800        44
    21.2000        56
    21.2200        50
    21.2400        58
    21.2600        46
    21.2800        58
    21.3000        46
    21.3200        54
    21.3400        46
    21.3600        66
    21.3800        56
    21.4000        44
    21.4200        44
    21.4400        50
    21.4600        70
    21.4800        50
    21.5000        70
    21.5200        46
    21.5400        70
    21.5600        48
    21.5800        50
    21.6000        54
    21.6200        48
    21.6400        56
    21.6600        64
    21.6800        52
    21.7000        46
    21.7200        40
    21.7400        58
    21.7600        62
    21.7800        62
    21.8000        60
    21.8200        56
    21.8400        50
    21.8600        46
    21.8800        52
    21.9000        48
    21.9200        56
    21.9400        46
    21.9600        70
    21.9800        42
    22.0000        48
    22.0200        44
    22.0400        54
    22.0600        44
    22.0800        56
    22.1000        54
    22.1200        58
    22.1400        44
    22.1600        54
    22.1800        58
    22.2000        38
    22.2200        54
    22.2400        56
    22.2600        54
    22.2800        66
    22.3000        80
    22.3200        62
    22.3400        74
    22.3600        70
    22.3800        58
    22.4000        78
    22.4200        74
    22.4400        82
    22.4600       102
    22.4800        98
    22.5000        94
    22.5200       106
    22.5400       136
    22.5600       152
    22.5800       188
    22.6000       228
    22.6200       262
    22.6400       330
    22.6600       410
    22.6800       432
    22.7000       538
    22.7200       610
    22.7400       630
    22.7600       606
    22.7800       600
    22.8000       510
    22.8200       442
    22.8400       304
    22.8600       258
    22.8800       168
    22.9000       128
    22.9200        92
    22.9400        90
    22.9600        72
    22.9800        66
    23.0000        64
    23.0200        58
    23.0400        58
    23.0600        50
    23.0800        48
    23.1000        48
    23.1200        46
    23.1400        64
    23.1600        52
    23.1800        44
    23.2000        56
    23.2200        56
    23.2400        42
    23.2600        52
    23.2800        46
    23.3000        48
    23.3200        58
    23.3400        54
    23.3600        62
    23.3800        56
    23.4000        50
    23.4200        46
    23.4400        52
    23.4600        72
    23.4800        66
    23.5000        60
    23.5200        54
    23.5400        68
    23.5600        66
    23.5800        84
    23.6000        84
    23.6200        92
    23.6400        78
    23.6600       110
    23.6800       116
    23.7000       148
    23.7200       156
    23.7400       184
    23.7600       170
    23.7800       204
    23.8000       174
    23.8200       140
    23.8400       132
    23.8600       116
    23.8800        80
    23.9000        66
    23.9200        46
    23.9400        64
    23.9600        56
    23.9800        58
    24.0000        46
    24.0200        50
    24.0400        54
    24.0600        42
    24.0800        46
    24.1000        38
    24.1200        52
    24.1400        30
    24.1600        44
    24.1800        44
    24.2000        54
    24.2200        34
    24.2400        46
    24.2600        50
    24.2800        56
    24.3000        46
    24.3200        40
    24.3400        44
    24.3600        36
    24.3800        64
    24.4000        42
    24.4200        38
    24.4400        36
    24.4600        52
    24.4800        44
    24.5000        44
    24.5200        50
    24.5400        42
    24.5600        52
    24.5800        50
    24.6000        52
    24.6200        46
    24.6400        30
    24.6600        36
    24.6800        36
    24.7000        58
    24.7200        38
    24.7400        48
    24.7600        50
    24.7800        40
    24.8000        48
    24.8200        48
    24.8400        34
    24.8600        50
    24.8800        54
    24.9000        44
    24.9200        52
    24.9400        52
    24.9600        66
    24.9800        50
    25.0000        56
    25.0200        68
    25.0400        70
    25.0600        64
    25.0800        74
    25.1000        78
    25.1200        74
    25.1400        80
    25.1600        86
    25.1800       120
    25.2000       132
    25.2200       138
    25.2400       180
    25.2600       202
    25.2800       230
    25.3000       238
    25.3200       266
    25.3400       276
    25.3600       286
    25.3800       274
    25.4000       228
    25.4200       248
    25.4400       248
    25.4600       232
    25.4800       172
    25.5000       170
    25.5200       122
    25.5400       110
    25.5600       102
    25.5800        82
    25.6000        58
    25.6200        46
    25.6400        62
    25.6600        50
    25.6800        48
    25.7000        32
    25.7200        38
    25.7400        54
    25.7600        56
    25.7800        46
    25.8000        46
    25.8200        32
    25.8400        48
    25.8600        44
    25.8800        48
    25.9000        28
    25.9200        38
    25.9400        44
    25.9600        42
    25.9800        36
    26.0000        38
    26.0200        40
    26.0400        52
    26.0600        36
    26.0800        48
    26.1000        48
    26.1200        36
    26.1400        42
    26.1600        46
    26.1800        38
    26.2000        36
    26.2200        40
    26.2400        44
    26.2600        46
    26.2800        48
    26.3000        42
    26.3200        28
    26.3400        42
    26.3600        40
    26.3800        42
    26.4000        40
    26.4200        42
    26.4400        34
    26.4600        40
    26.4800        42
    26.5000        50
    26.5200        38
    26.5400        40
    26.5600        50
    26.5800        34
    26.6000        30
    26.6200        50
    26.6400        34
    26.6600        48
    26.6800        34
    26.7000        32
    26.7200        32
    26.7400        48
    26.7600        48
    26.7800        32
    26.8000        50
    26.8200        42
    26.8400        40
    26.8600        50
    26.8800        42
    26.9000        38
    26.9200        40
    26.9400        54
    26.9600        42
    26.9800        36
    27.0000        44
    27.0200        44
    27.0400        34
    27.0600        34
    27.0800        44
    27.1000        32
    27.1200        44
    27.1400        46
    27.1600        44
    27.1800        40
    27.2000        32
    27.2200        30
    27.2400        40
    27.2600        28
    27.2800        52
    27.3000        34
    27.3200        40
    27.3400        38
    27.3600        52
    27.3800        52
    27.4000        46
    27.4200        52
    27.4400        36
    27.4600        50
    27.4800        36
    27.5000        44
    27.5200        44
    27.5400        48
    27.5600        36
    27.5800        42
    27.6000        54
    27.6200        50
    27.6400        32
    27.6600        38
    27.6800        30
    27.7000        42
    27.7200        42
    27.7400        50
    27.7600        30
    27.7800        48
    27.8000        20
    27.8200        28
    27.8400        34
    27.8600        34
    27.8800        36
    27.9000        44
    27.9200        32
    27.9400        34
    27.9600        48
    27.9800        44
    28.0000        50
    28.0200        44
    28.0400        36
    28.0600        40
    28.0800        36
    28.1000        36
    28.1200        56
    28.1400        44
    28.1600        48
    28.1800        36
    28.2000        30
    28.2200        46
    28.2400        46
    28.2600        34
    28.2800        52
    28.3000        38
    28.3200        36
    28.3400        34
    28.3600        42
    28.3800        44
    28.4000        40
    28.4200        34
    28.4400        42
    28.4600        40
    28.4800        40
    28.5000        36
    28.5200        44
    28.5400        46
    28.5600        42
    28.5800        30
    28.6000        36
    28.6200        34
    28.6400        56
    28.6600        32
    28.6800        34
    28.7000        46
    28.7200        36
    28.7400        46
    28.7600        40
    28.7800        50
    28.8000        48
    28.8200        42
    28.8400        38
    28.8600        52
    28.8800        40
    28.9000        36
    28.9200        42
    28.9400        54
    28.9600        34
    28.9800        50
    29.0000        46
    29.0200        42
    29.0400        46
    29.0600        48
    29.0800        56
    29.1000        40
    29.1200        46
    29.1400        36
    29.1600        42
    29.1800        44
    29.2000        46
    29.2200        40
    29.2400        42
    29.2600        46
    29.2800        52
    29.3000        60
    29.3200        60
    29.3400        54
    29.3600        68
    29.3800        68
    29.4000        84
    29.4200        92
    29.4400        94
    29.4600       134
    29.4800       144
    29.5000       124
    29.5200       130
    29.5400       154
    29.5600       192
    29.5800       198
    29.6000       178
    29.6200       190
    29.6400       180
    29.6600       244
    29.6800       264
    29.7000       244
    29.7200       200
    29.7400       188
    29.7600       172
    29.7800       162
    29.8000       120
    29.8200        86
    29.8400        96
    29.8600        70
    29.8800        54
    29.9000        44
    29.9200        50
    29.9400        54
    29.9600        54
    29.9800        46
    30.0000        56
    30.0200        50
    30.0400        42
    30.0600        44
    30.0800        46
    30.1000        50
    30.1200        40
    30.1400        46
    30.1600        30
    30.1800        40
    30.2000        36
    30.2200        40
    30.2400        48
    30.2600        32
    30.2800        38
    30.3000        42
    30.3200        48
    30.3400        46
    30.3600        38
    30.3800        46
    30.4000        40
    30.4200        38
    30.4400        36
    30.4600        36
    30.4800        38
    30.5000        44
    30.5200        18
    30.5400        40
    30.5600        36
    30.5800        30
    30.6000        32
    30.6200        48
    30.6400        38
    30.6600        42
    30.6800        42
    30.7000        34
    30.7200        30
    30.7400        46
    30.7600        42
    30.7800        46
    30.8000        50
    30.8200        52
    30.8400        36
    30.8600        36
    30.8800        50
    30.9000        40
    30.9200        44
    30.9400        36
    30.9600        36
    30.9800        46
    31.0000        40
    31.0200        42
    31.0400        48
    31.0600        40
    31.0800        44
    31.1000        34
    31.1200        34
    31.1400        36
    31.1600        38
    31.1800        44
    31.2000        46
    31.2200        44
    31.2400        58
    31.2600        28
    31.2800        36
    31.3000        52
    31.3200        64
    31.3400        30
    31.3600        40
    31.3800        46
    31.4000        52
    31.4200        30
    31.4400        50
    31.4600        48
    31.4800        38
    31.5000        40
    31.5200        32
    31.5400        52
    31.5600        52
    31.5800        52
    31.6000        54
    31.6200        48
    31.6400        56
    31.6600        50
    31.6800        48
    31.7000        38
    31.7200        50
    31.7400        44
    31.7600        58
    31.7800        42
    31.8000        54
    31.8200        80
    31.8400        82
    31.8600        72
    31.8800        86
    31.9000       108
    31.9200       100
    31.9400       120
    31.9600       154
    31.9800       174
    32.0000       194
    32.0200       262
    32.0400       386
    32.0600       498
    32.0800       558
    32.1000       712
    32.1200       822
    32.1400      1044
    32.1600       974
    32.1800       942
    32.2000       934
    32.2200       886
    32.2400       716
    32.2600       570
    32.2800       456
    32.3000       350
    32.3200       230
    32.3400       158
    32.3600       126
    32.3800       114
    32.4000        66
    32.4200        84
    32.4400        88
    32.4600        62
    32.4800        54
    32.5000        60
    32.5200        64
    32.5400        60
    32.5600        52
    32.5800        44
    32.6000        50
    32.6200        44
    32.6400        50
    32.6600        62
    32.6800        60
    32.7000        40
    32.7200        44
    32.7400        44
    32.7600        50
    32.7800        58
    32.8000        44
    32.8200        44
    32.8400        42
    32.8600        36
    32.8800        34
    32.9000        38
    32.9200        30
    32.9400        28
    32.9600        44
    32.9800        34
    33.0000        32
    33.0200        40
    33.0400        36
    33.0600        48
    33.0800        30
    33.1000        40
    33.1200        30
    33.1400        28
    33.1600        38
    33.1800        36
    33.2000        34
    33.2200        30
    33.2400        38
    33.2600        46
    33.2800        44
    33.3000        66
    33.3200        34
    33.3400        32
    33.3600        46
    33.3800        36
    33.4000        36
    33.4200        38
    33.4400        36
    33.4600        38
    33.4800        36
    33.5000        46
    33.5200        34
    33.5400        36
    33.5600        32
    33.5800        44
    33.6000        38
    33.6200        34
    33.6400        50
    33.6600        38
    33.6800        38
    33.7000        40
    33.7200        36
    33.7400        32
    33.7600        38
    33.7800        44
    33.8000        36
    33.8200        42
    33.8400        44
    33.8600        36
    33.8800        44
    33.9000        44
    33.9200        46
    33.9400        38
    33.9600        46
    33.9800        50
    34.0000        46
    34.0200        32
    34.0400        32
    34.0600        40
    34.0800        44
    34.1000        34
    34.1200        40
    34.1400        48
    34.1600        46
    34.1800        52
    34.2000        36
    34.2200        42
    34.2400        46
    34.2600        34
    34.2800        44
    34.3000        36
    34.3200        30
    34.3400        48
    34.3600        46
    34.3800        42
    34.4000        46
    34.4200        34
    34.4400        48
    34.4600        38
    34.4800        54
    34.5000        54
    34.5200        56
    34.5400        72
    34.5600        64
    34.5800        62
    34.6000        62
    34.6200        62
    34.6400        52
    34.6600        54
    34.6800        52
    34.7000        46
    34.7200        50
    34.7400        46
    34.7600        50
    34.7800        42
    34.8000        44
    34.8200        58
    34.8400        52
    34.8600        64
    34.8800        48
    34.9000        44
    34.9200        60
    34.9400        64
    34.9600        60
    34.9800        46
    35.0000        74
    35.0200        66
    35.0400        68
    35.0600        80
    35.0800        86
    35.1000        78
    35.1200        76
    35.1400        84
    35.1600        92
    35.1800        76
    35.2000       102
    35.2200        72
    35.2400        94
    35.2600        86
    35.2800        94
    35.3000       114
    35.3200       132
    35.3400       138
    35.3600       160
    35.3800       226
    35.4000       238
    35.4200       336
    35.4400       414
    35.4600       476
    35.4800       548
    35.5000       640
    35.5200       808
    35.5400       974
    35.5600      1138
    35.5800      1086
    35.6000      1050
    35.6200       874
    35.6400       670
    35.6600       588
    35.6800       544
    35.7000       394
    35.7200       302
    35.7400       200
    35.7600       130
    35.7800       134
    35.8000        98
    35.8200        92
    35.8400        96
    35.8600        76
    35.8800        72
    35.9000        82
    35.9200        60
    35.9400        68
    35.9600        76
    35.9800        70
    36.0000        76
    36.0200        90
    36.0400        96
    36.0600        88
    36.0800       104
    36.1000       100
    36.1200       122
    36.1400       136
    36.1600       182
    36.1800       182
    36.2000       242
    36.2200       282
    36.2400       326
    36.2600       390
    36.2800       472
    36.3000       546
    36.3200       656
    36.3400       804
    36.3600       850
    36.3800      1050
    36.4000       922
    36.4200       826
    36.4400       700
    36.4600       612
    36.4800       590
    36.5000       452
    36.5200       328
    36.5400       234
    36.5600       170
    36.5800       130
    36.6000       128
    36.6200        86
    36.6400        94
    36.6600        86
    36.6800        62
    36.7000        60
    36.7200        70
    36.7400        62
    36.7600        64
    36.7800        48
    36.8000        58
    36.8200        36
    36.8400        42
    36.8600        42
    36.8800        46
    36.9000        40
    36.9200        38
    36.9400        58
    36.9600        54
    36.9800        28
    37.0000        64
    37.0200        36
    37.0400        56
    37.0600        48
    37.0800        34
    37.1000        40
    37.1200        32
    37.1400        32
    37.1600        46
    37.1800        36
    37.2000        48
    37.2200        30
    37.2400        42
    37.2600        34
    37.2800        32
    37.3000        32
    37.3200        46
    37.3400        40
    37.3600        40
    37.3800        38
    37.4000        36
    37.4200        44
    37.4400        32
    37.4600        34
    37.4800        38
    37.5000        28
    37.5200        44
    37.5400        54
    37.5600        42
    37.5800        48
    37.6000        42
    37.6200        60
    37.6400        52
    37.6600        38
    37.6800        60
    37.7000        60
    37.7200        54
    37.7400        52
    37.7600        62
    37.7800        44
    37.8000        46
    37.8200        46
    37.8400        56
    37.8600        52
    37.8800        54
    37.9000        56
    37.9200        52
    37.9400        58
    37.9600        74
    37.9800        84
    38.0000        96
    38.0200       124
    38.0400       158
    38.0600       188
    38.0800       192
    38.1000       238
    38.1200       272
    38.1400       312
    38.1600       288
    38.1800       250
    38.2000       220
    38.2200       202
    38.2400       160
    38.2600       184
    38.2800       128
    38.3000        90
    38.3200        62
    38.3400        68
    38.3600        46
    38.3800        46
    38.4000        52
    38.4200        40
    38.4400        48
    38.4600        44
    38.4800        52
    38.5000        38
    38.5200        42
    38.5400        48
    38.5600        60
    38.5800        58
    38.6000        60
    38.6200        74
    38.6400        84
    38.6600        80
    38.6800        90
    38.7000        98
    38.7200       106
    38.7400        84
    38.7600        86
    38.7800        88
    38.8000        66
    38.8200        64
    38.8400        68
    38.8600        58
    38.8800        48
    38.9000        54
    38.9200        48
    38.9400        48
    38.9600        42
    38.9800        58
    39.0000        38
    39.0200        32
    39.0400        46
    39.0600        50
    39.0800        50
    39.1000        54
    39.1200        42
    39.1400        60
    39.1600        42
    39.1800        52
    39.2000        52
    39.2200        62
    39.2400        64
    39.2600        74
    39.2800        78
    39.3000        86
    39.3200        76
    39.3400       114
    39.3600       108
    39.3800       136
    39.4000       152
    39.4200       188
    39.4400       242
    39.4600       270
    39.4800       296
    39.5000       410
    39.5200       494
    39.5400       544
    39.5600       518
    39.5800       426
    39.6000       392
    39.6200       386
    39.6400       336
    39.6600       316
    39.6800       268
    39.7000       250
    39.7200       192
    39.7400       170
    39.7600       176
    39.7800       188
    39.8000       238
    39.8200       272
    39.8400       320
    39.8600       372
    39.8800       484
    39.9000       558
    39.9200       468
    39.9400       376
    39.9600       290
    39.9800       300
    40.0000       312
    40.0200       246
    40.0400       202
    40.0600       144
    40.0800       102
    40.1000        72
    40.1200        62
    40.1400        48
    40.1600        50
    40.1800        48
    40.2000        54
    40.2200        40
    40.2400        40
    40.2600        36
    40.2800        46
    40.3000        30
    40.3200        32
    40.3400        46
    40.3600        42
    40.3800        52
    40.4000        34
    40.4200        48
    40.4400        48
    40.4600        42
    40.4800        28
    40.5000        32
    40.5200        30
    40.5400        40
    40.5600        32
    40.5800        32
    40.6000        34
    40.6200        28
    40.6400        28
    40.6600        32
    40.6800        40
    40.7000        38
    40.7200        26
    40.7400        36
    40.7600        28
    40.7800        22
    40.8000        36
    40.8200        40
    40.8400        34
    40.8600        38
    40.8800        38
    40.9000        30
    40.9200        36
    40.9400        32
    40.9600        42
    40.9800        30
    41.0000        46
    41.0200        34
    41.0400        36
    41.0600        40
    41.0800        28
    41.1000        22
    41.1200        32
    41.1400        40
    41.1600        32
    41.1800        28
    41.2000        44
    41.2200        40
    41.2400        38
    41.2600        40
    41.2800        42
    41.3000        32
    41.3200        36
    41.3400        42
    41.3600        50
    41.3800        44
    41.4000        50
    41.4200        50
    41.4400        56
    41.4600        42
    41.4800        62
    41.5000        62
    41.5200        64
    41.5400        88
    41.5600        98
    41.5800       124
    41.6000       146
    41.6200       140
    41.6400       184
    41.6600       178
    41.6800       154
    41.7000       132
    41.7200       118
    41.7400       108
    41.7600        90
    41.7800        96
    41.8000        86
    41.8200        60
    41.8400        54
    41.8600        34
    41.8800        40
    41.9000        30
    41.9200        32
    41.9400        36
    41.9600        50
    41.9800        38
    42.0000        38
    42.0200        24
    42.0400        34
    42.0600        32
    42.0800        36
    42.1000        36
    42.1200        40
    42.1400        40
    42.1600        28
    42.1800        30
    42.2000        28
    42.2200        36
    42.2400        36
    42.2600        22
    42.2800        38
    42.3000        24
    42.3200        18
    42.3400        38
    42.3600        34
    42.3800        40
    42.4000        28
    42.4200        42
    42.4400        20
    42.4600        20
    42.4800        38
    42.5000        28
    42.5200        34
    42.5400        26
    42.5600        36
    42.5800        38
    42.6000        40
    42.6200        30
    42.6400        34
    42.6600        34
    42.6800        36
    42.7000        28
    42.7200        34
    42.7400        30
    42.7600        30
    42.7800        26
    42.8000        20
    42.8200        32
    42.8400        36
    42.8600        28
    42.8800        38
    42.9000        34
    42.9200        30
    42.9400        30
    42.9600        32
    42.9800        28
    43.0000        30
    43.0200        26
    43.0400        28
    43.0600        36
    43.0800        36
    43.1000        32
    43.1200        40
    43.1400        38
    43.1600        42
    43.1800        32
    43.2000        34
    43.2200        38
    43.2400        46
    43.2600        34
    43.2800        42
    43.3000        50
    43.3200        34
    43.3400        52
    43.3600        36
    43.3800        42
    43.4000        40
    43.4200        50
    43.4400        24
    43.4600        36
    43.4800        34
    43.5000        36
    43.5200        36
    43.5400        28
    43.5600        34
    43.5800        36
    43.6000        24
    43.6200        34
    43.6400        22
    43.6600        30
    43.6800        32
    43.7000        30
    43.7200        28
    43.7400        30
    43.7600        22
    43.7800        24
    43.8000        28
    43.8200        34
    43.8400        24
    43.8600        34
    43.8800        32
    43.9000        24
    43.9200        18
    43.9400        24
    43.9600        40
    43.9800        38
    44.0000        28
    44.0200        38
    44.0400        32
    44.0600        36
    44.0800        24
    44.1000        40
    44.1200        36
    44.1400        32
    44.1600        36
    44.1800        34
    44.2000        30
    44.2200        38
    44.2400        36
    44.2600        52
    44.2800        60
    44.3000        66
    44.3200        68
    44.3400        74
    44.3600        66
    44.3800        96
    44.4000        90
    44.4200        88
    44.4400        72
    44.4600        62
    44.4800        68
    44.5000        66
    44.5200        54
    44.5400        54
    44.5600        46
    44.5800        40
    44.6000        40
    44.6200        42
    44.6400        30
    44.6600        34
    44.6800        44
    44.7000        34
    44.7200        30
    44.7400        32
    44.7600        28
    44.7800        42
    44.8000        24
    44.8200        34
    44.8400        18
    44.8600        22
    44.8800        32
    44.9000        28
    44.9200        38
    44.9400        26
    44.9600        32
    44.9800        34
    45.0000        40
    45.0200        28
    45.0400        34
    45.0600        20
    45.0800        36
    45.1000        26
    45.1200        20
    45.1400        22
    45.1600        26
    45.1800        24
    45.2000        38
    45.2200        28
    45.2400        18
    45.2600        26
    45.2800        32
    45.3000        24
    45.3200        28
    45.3400        22
    45.3600        24
    45.3800        32
    45.4000        32
    45.4200        42
    45.4400        24
    45.4600        40
    45.4800        48
    45.5000        28
    45.5200        36
    45.5400        18
    45.5600        32
    45.5800        34
    45.6000        26
    45.6200        32
    45.6400        30
    45.6600        28
    45.6800        32
    45.7000        30
    45.7200        30
    45.7400        26
    45.7600        38
    45.7800        28
    45.8000        18
    45.8200        42
    45.8400        30
    45.8600        42
    45.8800        24
    45.9000        26
    45.9200        26
    45.9400        36
    45.9600        30
    45.9800        34
    46.0000        38
    46.0200        26
    46.0400        24
    46.0600        24
    46.0800        34
    46.1000        42
    46.1200        34
    46.1400        26
    46.1600        32
    46.1800        32
    46.2000        42
    46.2200        32
    46.2400        34
    46.2600        40
    46.2800        48
    46.3000        46
    46.3200        58
    46.3400        62
    46.3600        72
    46.3800        58
    46.4000        52
    46.4200        52
    46.4400        56
    46.4600        46
    46.4800        68
    46.5000        58
    46.5200        72
    46.5400        66
    46.5600        80
    46.5800        64
    46.6000        60
    46.6200        56
    46.6400        50
    46.6600        54
    46.6800        52
    46.7000        60
    46.7200        44
    46.7400        36
    46.7600        44
    46.7800        46
    46.8000        22
    46.8200        34
    46.8400        32
    46.8600        26
    46.8800        22
    46.9000        36
    46.9200        26
    46.9400        24
    46.9600        42
    46.9800        38
    47.0000        34
    47.0200        24
    47.0400        32
    47.0600        24
    47.0800        24
    47.1000        36
    47.1200        50
    47.1400        28
    47.1600        38
    47.1800        32
    47.2000        36
    47.2200        28
    47.2400        32
    47.2600        32
    47.2800        32
    47.3000        24
    47.3200        36
    47.3400        26
    47.3600        24
    47.3800        22
    47.4000        28
    47.4200        34
    47.4400        30
    47.4600        24
    47.4800        38
    47.5000        32
    47.5200        36
    47.5400        44
    47.5600        28
    47.5800        34
    47.6000        30
    47.6200        34
    47.6400        30
    47.6600        38
    47.6800        36
    47.7000        28
    47.7200        40
    47.7400        40
    47.7600        38
    47.7800        34
    47.8000        26
    47.8200        28
    47.8400        38
    47.8600        40
    47.8800        44
    47.9000        42
    47.9200        22
    47.9400        30
    47.9600        40
    47.9800        30
    48.0000        30
    48.0200        30
    48.0400        32
    48.0600        48
    48.0800        52
    48.1000        30
    48.1200        36
    48.1400        48
    48.1600        56
    48.1800        66
    48.2000        78
    48.2200        74
    48.2400        86
    48.2600       102
    48.2800       124
    48.3000       124
    48.3200       100
    48.3400        84
    48.3600        82
    48.3800        86
    48.4000        88
    48.4200        90
    48.4400        64
    48.4600        64
    48.4800        56
    48.5000        32
    48.5200        46
    48.5400        26
    48.5600        30
    48.5800        30
    48.6000        50
    48.6200        38
    48.6400        44
    48.6600        40
    48.6800        44
    48.7000        40
    48.7200        54
    48.7400        46
    48.7600        38
    48.7800        30
    48.8000        44
    48.8200        44
    48.8400        32
    48.8600        32
    48.8800        44
    48.9000        22
    48.9200        38
    48.9400        38
    48.9600        38
    48.9800        28
    49.0000        34
    49.0200        36
    49.0400        36
    49.0600        32
    49.0800        36
    49.1000        28
    49.1200        32
    49.1400        30
    49.1600        26
    49.1800        32
    49.2000        26
    49.2200        38
    49.2400        44
    49.2600        36
    49.2800        24
    49.3000        28
    49.3200        32
    49.3400        34
    49.3600        40
    49.3800        46
    49.4000        40
    49.4200        46
    49.4400        30
    49.4600        32
    49.4800        28
    49.5000        52
    49.5200        30
    49.5400        30
    49.5600        46
    49.5800        42
    49.6000        42
    49.6200        28
    49.6400        30
    49.6600        32
    49.6800        24
    49.7000        30
    49.7200        38
    49.7400        46
    49.7600        44
    49.7800        32
    49.8000        28
    49.8200        40
    49.8400        28
    49.8600        30
    49.8800        28
    49.9000        40
    49.9200        42
    49.9400        42
    49.9600        32
    49.9800        42
    50.0000        44
    50.0200        26
    50.0400        40
    50.0600        50
    50.0800        54
    50.1000        44
    50.1200        60
    50.1400        78
    50.1600        76
    50.1800        62
    50.2000        84
    50.2200        68
    50.2400        62
    50.2600        52
    50.2800        60
    50.3000        66
    50.3200        70
    50.3400        52
    50.3600        44
    50.3800        58
    50.4000        34
    50.4200        46
    50.4400        40
    50.4600        38
    50.4800        36
    50.5000        38
    50.5200        30
    50.5400        42
    50.5600        38
    50.5800        46
    50.6000        34
    50.6200        52
    50.6400        50
    50.6600        48
    50.6800        70
    50.7000        88
    50.7200        76
    50.7400       102
    50.7600       102
    50.7800        96
    50.8000       106
    50.8200        70
    50.8400        84
    50.8600        64
    50.8800        80
    50.9000        72
    50.9200        70
    50.9400        62
    50.9600        48
    50.9800        48
    51.0000        36
    51.0200        38
    51.0400        42
    51.0600        32
    51.0800        34
    51.1000        34
    51.1200        34
    51.1400        42
    51.1600        36
    51.1800        32
    51.2000        28
    51.2200        44
    51.2400        40
    51.2600        34
    51.2800        34
    51.3000        34
    51.3200        36
    51.3400        36
    51.3600        42
    51.3800        36
    51.4000        32
    51.4200        28
    51.4400        36
    51.4600        42
    51.4800        32
    51.5000        44
    51.5200        34
    51.5400        38
    51.5600        36
    51.5800        38
    51.6000        32
    51.6200        54
    51.6400        44
    51.6600        64
    51.6800        44
    51.7000        54
    51.7200        44
    51.7400        56
    51.7600        50
    51.7800        60
    51.8000        62
    51.8200        74
    51.8400        62
    51.8600       100
    51.8800        96
    51.9000        98
    51.9200       106
    51.9400       144
    51.9600       178
    51.9800       222
    52.0000       308
    52.0200       380
    52.0400       504
    52.0600       544
    52.0800       646
    52.1000       546
    52.1200       496
    52.1400       460
    52.1600       408
    52.1800       388
    52.2000       386
    52.2200       354
    52.2400       322
    52.2600       304
    52.2800       284
    52.3000       270
    52.3200       240
    52.3400       296
    52.3600       292
    52.3800       284
    52.4000       258
    52.4200       226
    52.4400       208
    52.4600       188
    52.4800       152
    52.5000       146
    52.5200       168
    52.5400       144
    52.5600       116
    52.5800       114
    52.6000       116
    52.6200        88
    52.6400        96
    52.6600       110
    52.6800        98
    52.7000        84
    52.7200        96
    52.7400        74
    52.7600        80
    52.7800        74
    52.8000        60
    52.8200        58
    52.8400        56
    52.8600        52
    52.8800        42
    52.9000        42
    52.9200        52
    52.9400        40
    52.9600        38
    52.9800        40
    53.0000        28
    53.0200        34
    53.0400        42
    53.0600        36
    53.0800        22
    53.1000        28
    53.1200        24
    53.1400        36
    53.1600        40
    53.1800        48
    53.2000        24
    53.2200        36
    53.2400        36
    53.2600        24
    53.2800        34
    53.3000        32
    53.3200        30
    53.3400        34
    53.3600        40
    53.3800        40
    53.4000        30
    53.4200        38
    53.4400        30
    53.4600        40
    53.4800        22
    53.5000        32
    53.5200        32
    53.5400        30
    53.5600        46
    53.5800        44
    53.6000        40
    53.6200        42
    53.6400        26
    53.6600        38
    53.6800        26
    53.7000        38
    53.7200        28
    53.7400        36
    53.7600        34
    53.7800        34
    53.8000        26
    53.8200        30
    53.8400        26
    53.8600        28
    53.8800        36
    53.9000        24
    53.9200        36
    53.9400        32
    53.9600        34
    53.9800        30
    54.0000        32
    54.0200        34
    54.0400        38
    54.0600        42
    54.0800        32
    54.1000        38
    54.1200        42
    54.1400        44
    54.1600        34
    54.1800        36
    54.2000        22
    54.2200        34
    54.2400        32
    54.2600        30
    54.2800        24
    54.3000        28
    54.3200        38
    54.3400        30
    54.3600        32
    54.3800        28
    54.4000        46
    54.4200        50
    54.4400        42
    54.4600        50
    54.4800        40
    54.5000        40
    54.5200        44
    54.5400        50
    54.5600        46
    54.5800        60
    54.6000        70
    54.6200        68
    54.6400        90
    54.6600       116
    54.6800       180
    54.7000       170
    54.7200       168
    54.7400       160
    54.7600       144
    54.7800       134
    54.8000       104
    54.8200       108
    54.8400       120
    54.8600       108
    54.8800       104
    54.9000        82
    54.9200        74
    54.9400        70
    54.9600        60
    54.9800        42
    55.0000        44
    55.0200        50
    55.0400        46
    55.0600        34
    55.0800        28
    55.1000        36
    55.1200        44
    55.1400        30
    55.1600        22
    55.1800        42
    55.2000        22
    55.2200        36
    55.2400        30
    55.2600        42
    55.2800        30
    55.3000        32
    55.3200        36
    55.3400        28
    55.3600        24
    55.3800        40
    55.4000        36
    55.4200        32
    55.4400        34
    55.4600        28
    55.4800        38
    55.5000        38
    55.5200        28
    55.5400        38
    55.5600        26
    55.5800        50
    55.6000        40
    55.6200        34
    55.6400        34
    55.6600        42
    55.6800        54
    55.7000        46
    55.7200        46
    55.7400        44
    55.7600        36
    55.7800        70
    55.8000        70
    55.8200        82
    55.8400       136
    55.8600       138
    55.8800       168
    55.9000       186
    55.9200       202
    55.9400       192
    55.9600       198
    55.9800       188
    56.0000       192
    56.0200       168
    56.0400       166
    56.0600       182
    56.0800       180
    56.1000       150
    56.1200       136
    56.1400       100
    56.1600       100
    56.1800        68
    56.2000        88
    56.2200        74
    56.2400        52
    56.2600        48
    56.2800        52
    56.3000        58
    56.3200        42
    56.3400        48
    56.3600        58
    56.3800        50
    56.4000        52
    56.4200        48
    56.4400        54
    56.4600        46
    56.4800        64
    56.5000        64
    56.5200        76
    56.5400        94
    56.5600       132
    56.5800       170
    56.6000       250
    56.6200       224
    56.6400       308
    56.6600       300
    56.6800       266
    56.7000       222
    56.7200       186
    56.7400       154
    56.7600       154
    56.7800       160
    56.8000       190
    56.8200       182
    56.8400       134
    56.8600       122
    56.8800        80
    56.9000        68
    56.9200        66
    56.9400        58
    56.9600        50
    56.9800        48
    57.0000        44
    57.0200        44
    57.0400        26
    57.0600        32
    57.0800        36
    57.1000        36
    57.1200        54
    57.1400        30
    57.1600        46
    57.1800        46
    57.2000        56
    57.2200        72
    57.2400        68
    57.2600        58
    57.2800        64
    57.3000        54
    57.3200        56
    57.3400        64
    57.3600        52
    57.3800        72
    57.4000        64
    57.4200        56
    57.4400        52
    57.4600        42
    57.4800        62
    57.5000        42
    57.5200        58
    57.5400        40
    57.5600        46
    57.5800        54
    57.6000        60
    57.6200        48
    57.6400        44
    57.6600        66
    57.6800        72
    57.7000        82
    57.7200        88
    57.7400       102
    57.7600        90
    57.7800        76
    57.8000        68
    57.8200        62
    57.8400        46
    57.8600        64
    57.8800        70
    57.9000        60
    57.9200        62
    57.9400        62
    57.9600        58
    57.9800        50
    58.0000        42
    58.0200        46
    58.0400        44
    58.0600        56
    58.0800        36
    58.1000        48
    58.1200        38
    58.1400        34
    58.1600        50
    58.1800        46
    58.2000        36
    58.2200        38
    58.2400        42
    58.2600        36
    58.2800        44
    58.3000        46
    58.3200        46
    58.3400        54
    58.3600        58
    58.3800        82
    58.4000       102
    58.4200        94
    58.4400        94
    58.4600       122
    58.4800       104
    58.5000       112
    58.5200       104
    58.5400       106
    58.5600        82
    58.5800        98
    58.6000        90
    58.6200       102
    58.6400       102
    58.6600        90
    58.6800        84
    58.7000        88
    58.7200        76
    58.7400        58
    58.7600        50
    58.7800        62
    58.8000        44
    58.8200        48
    58.8400        44
    58.8600        34
    58.8800        50
    58.9000        40
    58.9200        40
    58.9400        32
    58.9600        48
    58.9800        36
    59.0000        46
    59.0200        26
    59.0400        30
    59.0600        50
    59.0800        26
    59.1000        34
    59.1200        22
    59.1400        42
    59.1600        38
    59.1800        34
    59.2000        40
    59.2200        32
    59.2400        28
    59.2600        38
    59.2800        26
    59.3000        32
    59.3200        26
    59.3400        32
    59.3600        34
    59.3800        30
    59.4000        30
    59.4200        38
    59.4400        46
    59.4600        40
    59.4800        40
    59.5000        40
    59.5200        40
    59.5400        26
    59.5600        26
    59.5800        36
    59.6000        32
    59.6200        42
    59.6400        42
    59.6600        32
    59.6800        26
    59.7000        26
    59.7200        38
    59.7400        26
    59.7600        36
    59.7800        34
    59.8000        32
    59.8200        34
    59.8400        28
    59.8600        30
    59.8800        20
    59.9000        22
    59.9200        34
    59.9400        28
    59.9600        36
    59.9800        30
    60.0000        34
    60.0200        38
    60.0400        24
    60.0600        36
    60.0800        38
    60.1000        40
    60.1200        44
    60.1400        44
    60.1600        46
    60.1800        56
    60.2000        52
    60.2200        50
    60.2400        46
    60.2600        32
    60.2800        40
    60.3000        40
    60.3200        44
    60.3400        34
    60.3600        36
    60.3800        48
    60.4000        24
    60.4200        30
    60.4400        24
    60.4600        42
    60.4800        40
    60.5000        32
    60.5200        32
    60.5400        30
    60.5600        34
    60.5800        24
    60.6000        42
    60.6200        40
    60.6400        28
    60.6600        40
    60.6800        30
    60.7000        36
    60.7200        28
    60.7400        46
    60.7600        42
    60.7800        34
    60.8000        44
    60.8200        32
    60.8400        60
    60.8600        58
    60.8800        78
    60.9000        64
    60.9200        70
    60.9400        74
    60.9600        66
    60.9800        64
    61.0000        98
    61.0200        84
    61.0400        90
    61.0600        90
    61.0800        68
    61.1000        68
    61.1200        70
    61.1400        64
    61.1600        86
    61.1800        52
    61.2000        62
    61.2200        58
    61.2400        64
    61.2600        64
    61.2800        76
    61.3000        74
    61.3200        78
    61.3400       106
    61.3600       108
    61.3800       116
    61.4000       108
    61.4200       122
    61.4400        80
    61.4600        98
    61.4800        92
    61.5000       102
    61.5200        94
    61.5400       122
    61.5600       132
    61.5800       138
    61.6000       158
    61.6200       152
    61.6400       136
    61.6600       160
    61.6800       196
    61.7000       242
    61.7200       302
    61.7400       332
    61.7600       384
    61.7800       424
    61.8000       402
    61.8200       344
    61.8400       274
    61.8600       198
    61.8800       222
    61.9000       186
    61.9200       220
    61.9400       224
    61.9600       206
    61.9800       208
    62.0000       150
    62.0200       130
    62.0400       100
    62.0600        74
    62.0800        68
    62.1000        60
    62.1200        62
    62.1400        70
    62.1600        56
    62.1800        60
    62.2000        72
    62.2200        72
    62.2400        80
    62.2600        64
    62.2800        84
    62.3000        82
    62.3200        78
    62.3400       100
    62.3600        86
    62.3800       120
    62.4000       176
    62.4200       186
    62.4400       268
    62.4600       302
    62.4800       454
    62.5000       538
    62.5200       624
    62.5400       542
    62.5600       454
    62.5800       380
    62.6000       284
    62.6200       270
    62.6400       260
    62.6600       302
    62.6800       306
    62.7000       318
    62.7200       290
    62.7400       266
    62.7600       174
    62.7800       160
    62.8000       102
    62.8200        90
    62.8400        68
    62.8600        74
    62.8800        48
    62.9000        60
    62.9200        62
    62.9400        48
    62.9600        48
    62.9800        58
    63.0000        50
    63.0200        40
    63.0400        50
    63.0600        58
    63.0800        50
    63.1000        30
    63.1200        58
    63.1400        50
    63.1600        44
    63.1800        32
    63.2000        48
    63.2200        44
    63.2400        52
    63.2600        52
    63.2800        54
    63.3000        40
    63.3200        36
    63.3400        44
    63.3600        30
    63.3800        46
    63.4000        38
    63.4200        32
    63.4400        44
    63.4600        50
    63.4800        30
    63.5000        52
    63.5200        44
    63.5400        28
    63.5600        36
    63.5800        20
    63.6000        30
    63.6200        32
    63.6400        30
    63.6600        32
    63.6800        14
    63.7000        30
    63.7200        32
    63.7400        26
    63.7600        24
    63.7800        34
    63.8000        18
    63.8200        38
    63.8400        34
    63.8600        28
    63.8800        36
    63.9000        36
    63.9200        30
    63.9400        42
    63.9600        42
    63.9800        26
    64.0000        16
    64.0200        32
    64.0400        28
    64.0600        46
    64.0800        38
    64.1000        28
    64.1200        26
    64.1400        14
    64.1600        34
    64.1800        28
    64.2000        28
    64.2200        30
    64.2400        32
    64.2600        26
    64.2800        30
    64.3000        36
    64.3200        28
    64.3400        34
    64.3600        34
    64.3800        30
    64.4000        22
    64.4200        28
    64.4400        20
    64.4600        26
    64.4800        40
    64.5000        44
    64.5200        34
    64.5400        48
    64.5600        52
    64.5800        36
    64.6000        58
    64.6200        70
    64.6400        90
    64.6600        76
    64.6800        60
    64.7000        66
    64.7200        44
    64.7400        46
    64.7600        42
    64.7800        50
    64.8000        56
    64.8200        68
    64.8400        46
    64.8600        34
    64.8800        50
    64.9000        48
    64.9200        30
    64.9400        48
    64.9600        36
    64.9800        36
    65.0000        30
