/////////////////////////////////////////////////////////////////////////////////
/// Profile Data Ascii Dump (XRD)                                             ///
/////////////////////////////////////////////////////////////////////////////////

  Group     : Swayze
  Data      : SBS-03-1
  File Name : SBS-03-1.RAW

# Profile Datafile
          comment             = Opal-A 
          date & time         = 08-03-12 07:00:21 

# Measurement Condition
    X-ray tube
          target              = Cu 
          voltage             = 40.0 (kV)
          current             = 30.0 (mA)
    Slits
          divergence slit     = 2.00000 (deg) 
          scatter slit        = 2.00000 (deg) 
          receiving slit      = 0.15000 (mm)  
    Scanning
          drive axis          = Theta-2Theta 
          scan range          =    4.000 -   65.000 
          scan mode           = Continuous Scan 
          scan speed          =   2.0000 (deg/min) 
          sampling pitch      =   0.0200 (deg) 
          preset time         =   0.60 (sec) 

# Data      [ Total No. = 3051 ]
  <2Theta>   <   I   >
     4.0000       226
     4.0200       214
     4.0400       208
     4.0600       230
     4.0800       232
     4.1000       222
     4.1200       206
     4.1400       222
     4.1600       202
     4.1800       230
     4.2000       208
     4.2200       210
     4.2400       218
     4.2600       234
     4.2800       208
     4.3000       182
     4.3200       216
     4.3400       206
     4.3600       214
     4.3800       202
     4.4000       202
     4.4200       216
     4.4400       182
     4.4600       212
     4.4800       212
     4.5000       204
     4.5200       180
     4.5400       204
     4.5600       186
     4.5800       166
     4.6000       184
     4.6200       200
     4.6400       202
     4.6600       170
     4.6800       198
     4.7000       184
     4.7200       182
     4.7400       148
     4.7600       188
     4.7800       196
     4.8000       178
     4.8200       204
     4.8400       216
     4.8600       184
     4.8800       174
     4.9000       202
     4.9200       180
     4.9400       194
     4.9600       190
     4.9800       188
     5.0000       176
     5.0200       202
     5.0400       200
     5.0600       190
     5.0800       174
     5.1000       182
     5.1200       190
     5.1400       194
     5.1600       190
     5.1800       192
     5.2000       178
     5.2200       190
     5.2400       208
     5.2600       176
     5.2800       156
     5.3000       178
     5.3200       196
     5.3400       194
     5.3600       206
     5.3800       160
     5.4000       194
     5.4200       194
     5.4400       188
     5.4600       200
     5.4800       196
     5.5000       192
     5.5200       160
     5.5400       192
     5.5600       158
     5.5800       170
     5.6000       168
     5.6200       186
     5.6400       192
     5.6600       190
     5.6800       176
     5.7000       156
     5.7200       220
     5.7400       204
     5.7600       188
     5.7800       182
     5.8000       192
     5.8200       172
     5.8400       172
     5.8600       182
     5.8800       172
     5.9000       164
     5.9200       170
     5.9400       210
     5.9600       176
     5.9800       192
     6.0000       190
     6.0200       172
     6.0400       176
     6.0600       166
     6.0800       166
     6.1000       164
     6.1200       170
     6.1400       172
     6.1600       162
     6.1800       162
     6.2000       158
     6.2200       164
     6.2400       160
     6.2600       182
     6.2800       168
     6.3000       154
     6.3200       162
     6.3400       184
     6.3600       152
     6.3800       158
     6.4000       162
     6.4200       158
     6.4400       164
     6.4600       148
     6.4800       140
     6.5000       174
     6.5200       166
     6.5400       176
     6.5600       180
     6.5800       156
     6.6000       144
     6.6200       174
     6.6400       166
     6.6600       156
     6.6800       166
     6.7000       144
     6.7200       170
     6.7400       170
     6.7600       168
     6.7800       150
     6.8000       152
     6.8200       142
     6.8400       134
     6.8600       162
     6.8800       164
     6.9000       146
     6.9200       140
     6.9400       160
     6.9600       160
     6.9800       154
     7.0000       178
     7.0200       148
     7.0400       144
     7.0600       144
     7.0800       126
     7.1000       174
     7.1200       156
     7.1400       148
     7.1600       142
     7.1800       128
     7.2000       162
     7.2200       148
     7.2400       164
     7.2600       158
     7.2800       118
     7.3000       148
     7.3200       126
     7.3400       154
     7.3600       150
     7.3800       134
     7.4000       136
     7.4200       120
     7.4400       142
     7.4600       146
     7.4800       130
     7.5000       136
     7.5200       142
     7.5400       130
     7.5600       136
     7.5800       136
     7.6000       150
     7.6200       118
     7.6400       146
     7.6600       142
     7.6800       130
     7.7000       136
     7.7200       128
     7.7400       160
     7.7600       126
     7.7800       130
     7.8000       118
     7.8200       130
     7.8400       126
     7.8600       142
     7.8800       128
     7.9000       134
     7.9200       166
     7.9400       128
     7.9600       150
     7.9800       142
     8.0000       132
     8.0200       116
     8.0400       148
     8.0600       144
     8.0800       150
     8.1000       142
     8.1200       152
     8.1400       140
     8.1600       162
     8.1800       144
     8.2000       148
     8.2200       144
     8.2400       152
     8.2600       132
     8.2800       134
     8.3000       142
     8.3200       144
     8.3400       128
     8.3600       146
     8.3800       142
     8.4000       152
     8.4200       150
     8.4400       136
     8.4600       144
     8.4800       112
     8.5000       132
     8.5200       140
     8.5400       156
     8.5600       144
     8.5800       142
     8.6000       126
     8.6200       176
     8.6400       152
     8.6600       140
     8.6800       166
     8.7000       146
     8.7200       152
     8.7400       142
     8.7600       148
     8.7800       144
     8.8000       128
     8.8200       152
     8.8400       146
     8.8600       152
     8.8800       148
     8.9000       154
     8.9200       122
     8.9400       158
     8.9600       136
     8.9800       150
     9.0000       128
     9.0200       122
     9.0400       138
     9.0600       152
     9.0800       144
     9.1000       132
     9.1200       152
     9.1400       138
     9.1600       126
     9.1800       148
     9.2000       162
     9.2200       128
     9.2400       130
     9.2600       156
     9.2800       126
     9.3000       112
     9.3200       136
     9.3400       142
     9.3600       142
     9.3800       138
     9.4000       130
     9.4200       152
     9.4400       144
     9.4600       144
     9.4800       140
     9.5000       156
     9.5200       130
     9.5400       154
     9.5600       136
     9.5800       134
     9.6000       120
     9.6200       116
     9.6400       134
     9.6600       134
     9.6800       124
     9.7000       146
     9.7200       146
     9.7400       136
     9.7600       138
     9.7800       130
     9.8000       124
     9.8200       146
     9.8400       112
     9.8600       124
     9.8800       134
     9.9000       134
     9.9200       132
     9.9400       126
     9.9600       124
     9.9800       128
    10.0000       120
    10.0200       110
    10.0400       130
    10.0600       120
    10.0800       134
    10.1000       118
    10.1200       142
    10.1400       144
    10.1600       146
    10.1800       114
    10.2000       126
    10.2200       130
    10.2400       134
    10.2600       124
    10.2800       100
    10.3000       138
    10.3200       144
    10.3400       124
    10.3600       124
    10.3800       136
    10.4000       114
    10.4200       122
    10.4400       130
    10.4600       128
    10.4800       150
    10.5000       124
    10.5200       134
    10.5400       136
    10.5600       112
    10.5800       128
    10.6000       128
    10.6200       118
    10.6400       132
    10.6600       116
    10.6800       134
    10.7000       136
    10.7200       124
    10.7400       118
    10.7600       142
    10.7800       140
    10.8000       124
    10.8200       106
    10.8400       122
    10.8600       108
    10.8800       120
    10.9000       124
    10.9200       126
    10.9400       136
    10.9600       108
    10.9800       120
    11.0000       132
    11.0200       104
    11.0400       128
    11.0600       120
    11.0800       106
    11.1000       146
    11.1200       128
    11.1400       128
    11.1600       128
    11.1800       110
    11.2000       114
    11.2200       116
    11.2400       136
    11.2600       120
    11.2800       114
    11.3000       118
    11.3200       112
    11.3400       132
    11.3600       108
    11.3800       130
    11.4000       144
    11.4200       104
    11.4400       124
    11.4600       132
    11.4800       116
    11.5000       110
    11.5200       124
    11.5400        98
    11.5600       100
    11.5800       116
    11.6000       108
    11.6200       110
    11.6400       116
    11.6600       116
    11.6800       116
    11.7000       102
    11.7200       106
    11.7400        96
    11.7600       108
    11.7800       120
    11.8000        96
    11.8200       106
    11.8400       106
    11.8600       108
    11.8800       102
    11.9000       110
    11.9200       110
    11.9400       122
    11.9600       118
    11.9800       108
    12.0000       112
    12.0200       100
    12.0400       134
    12.0600       108
    12.0800       104
    12.1000       102
    12.1200       104
    12.1400       106
    12.1600       114
    12.1800       120
    12.2000       110
    12.2200       110
    12.2400       128
    12.2600       130
    12.2800       112
    12.3000       102
    12.3200       118
    12.3400       106
    12.3600       118
    12.3800       116
    12.4000       124
    12.4200       106
    12.4400       106
    12.4600        96
    12.4800       108
    12.5000       118
    12.5200       110
    12.5400       104
    12.5600       100
    12.5800       106
    12.6000       108
    12.6200       116
    12.6400       104
    12.6600       118
    12.6800       110
    12.7000        92
    12.7200       112
    12.7400       114
    12.7600        96
    12.7800        90
    12.8000       102
    12.8200       110
    12.8400       106
    12.8600       116
    12.8800       104
    12.9000       108
    12.9200       126
    12.9400       110
    12.9600       104
    12.9800       118
    13.0000       104
    13.0200        94
    13.0400       106
    13.0600       100
    13.0800       114
    13.1000        90
    13.1200       112
    13.1400       118
    13.1600       112
    13.1800       104
    13.2000        98
    13.2200        98
    13.2400        90
    13.2600       128
    13.2800        88
    13.3000        94
    13.3200       126
    13.3400        92
    13.3600       120
    13.3800       112
    13.4000       118
    13.4200        92
    13.4400       110
    13.4600       104
    13.4800       110
    13.5000       110
    13.5200       106
    13.5400       106
    13.5600       110
    13.5800       108
    13.6000       110
    13.6200       132
    13.6400        94
    13.6600       108
    13.6800        98
    13.7000       108
    13.7200       122
    13.7400       110
    13.7600       110
    13.7800       106
    13.8000       130
    13.8200       126
    13.8400       124
    13.8600       132
    13.8800       120
    13.9000       108
    13.9200        80
    13.9400        88
    13.9600       106
    13.9800       116
    14.0000       100
    14.0200       108
    14.0400       100
    14.0600        96
    14.0800       122
    14.1000        84
    14.1200        90
    14.1400        98
    14.1600       118
    14.1800        94
    14.2000       106
    14.2200       104
    14.2400        96
    14.2600       122
    14.2800       104
    14.3000       110
    14.3200        94
    14.3400       106
    14.3600       104
    14.3800       116
    14.4000       100
    14.4200       112
    14.4400        98
    14.4600       100
    14.4800       108
    14.5000        96
    14.5200       116
    14.5400       106
    14.5600        96
    14.5800       100
    14.6000       106
    14.6200        84
    14.6400       130
    14.6600       118
    14.6800       108
    14.7000       120
    14.7200       134
    14.7400       128
    14.7600        96
    14.7800       102
    14.8000       114
    14.8200       102
    14.8400       118
    14.8600       122
    14.8800       108
    14.9000        90
    14.9200       108
    14.9400       114
    14.9600       116
    14.9800       116
    15.0000       118
    15.0200       104
    15.0400       114
    15.0600       100
    15.0800       102
    15.1000        98
    15.1200       134
    15.1400       108
    15.1600       110
    15.1800       112
    15.2000       118
    15.2200       108
    15.2400       114
    15.2600       104
    15.2800       112
    15.3000       112
    15.3200       114
    15.3400       104
    15.3600       116
    15.3800       136
    15.4000        98
    15.4200       120
    15.4400       124
    15.4600       110
    15.4800       114
    15.5000       130
    15.5200        96
    15.5400       114
    15.5600       120
    15.5800        96
    15.6000       118
    15.6200       102
    15.6400       120
    15.6600       114
    15.6800       122
    15.7000       132
    15.7200       114
    15.7400       126
    15.7600       130
    15.7800       106
    15.8000       120
    15.8200       114
    15.8400       126
    15.8600       106
    15.8800       118
    15.9000       110
    15.9200       128
    15.9400       124
    15.9600       120
    15.9800       116
    16.0000       116
    16.0200       118
    16.0400       100
    16.0600       130
    16.0800       130
    16.1000       120
    16.1200       122
    16.1400       116
    16.1600       128
    16.1800       120
    16.2000       126
    16.2200       104
    16.2400       110
    16.2600       102
    16.2800       118
    16.3000       120
    16.3200       108
    16.3400       124
    16.3600       108
    16.3800       136
    16.4000       132
    16.4200       142
    16.4400       138
    16.4600       156
    16.4800       126
    16.5000       128
    16.5200       118
    16.5400       146
    16.5600       132
    16.5800       124
    16.6000       120
    16.6200       150
    16.6400       106
    16.6600       140
    16.6800       128
    16.7000       130
    16.7200       148
    16.7400       138
    16.7600       130
    16.7800       128
    16.8000       122
    16.8200       118
    16.8400       138
    16.8600       136
    16.8800       136
    16.9000       142
    16.9200       134
    16.9400       134
    16.9600       144
    16.9800       114
    17.0000       120
    17.0200       144
    17.0400       136
    17.0600       146
    17.0800       130
    17.1000       140
    17.1200       124
    17.1400       136
    17.1600       108
    17.1800       152
    17.2000       134
    17.2200       140
    17.2400       130
    17.2600       160
    17.2800       146
    17.3000       138
    17.3200       172
    17.3400       160
    17.3600       164
    17.3800       136
    17.4000       160
    17.4200       168
    17.4400       144
    17.4600       136
    17.4800       146
    17.5000       134
    17.5200       140
    17.5400       138
    17.5600       140
    17.5800       156
    17.6000       168
    17.6200       160
    17.6400       130
    17.6600       180
    17.6800       154
    17.7000       156
    17.7200       114
    17.7400       136
    17.7600       144
    17.7800       154
    17.8000       174
    17.8200       154
    17.8400       170
    17.8600       176
    17.8800       164
    17.9000       136
    17.9200       172
    17.9400       166
    17.9600       134
    17.9800       172
    18.0000       184
    18.0200       156
    18.0400       162
    18.0600       166
    18.0800       178
    18.1000       172
    18.1200       146
    18.1400       186
    18.1600       186
    18.1800       154
    18.2000       176
    18.2200       160
    18.2400       174
    18.2600       164
    18.2800       166
    18.3000       182
    18.3200       142
    18.3400       180
    18.3600       166
    18.3800       182
    18.4000       202
    18.4200       192
    18.4400       212
    18.4600       206
    18.4800       194
    18.5000       182
    18.5200       170
    18.5400       188
    18.5600       190
    18.5800       198
    18.6000       152
    18.6200       206
    18.6400       196
    18.6600       152
    18.6800       172
    18.7000       216
    18.7200       188
    18.7400       188
    18.7600       188
    18.7800       184
    18.8000       192
    18.8200       178
    18.8400       200
    18.8600       202
    18.8800       196
    18.9000       198
    18.9200       192
    18.9400       198
    18.9600       202
    18.9800       190
    19.0000       204
    19.0200       190
    19.0400       212
    19.0600       220
    19.0800       220
    19.1000       226
    19.1200       206
    19.1400       186
    19.1600       210
    19.1800       202
    19.2000       220
    19.2200       194
    19.2400       212
    19.2600       204
    19.2800       204
    19.3000       216
    19.3200       216
    19.3400       208
    19.3600       228
    19.3800       206
    19.4000       216
    19.4200       218
    19.4400       220
    19.4600       230
    19.4800       222
    19.5000       212
    19.5200       214
    19.5400       250
    19.5600       226
    19.5800       258
    19.6000       220
    19.6200       224
    19.6400       210
    19.6600       230
    19.6800       244
    19.7000       234
    19.7200       266
    19.7400       232
    19.7600       236
    19.7800       254
    19.8000       242
    19.8200       220
    19.8400       270
    19.8600       246
    19.8800       246
    19.9000       234
    19.9200       218
    19.9400       218
    19.9600       234
    19.9800       248
    20.0000       262
    20.0200       228
    20.0400       270
    20.0600       240
    20.0800       266
    20.1000       262
    20.1200       264
    20.1400       282
    20.1600       266
    20.1800       268
    20.2000       272
    20.2200       254
    20.2400       248
    20.2600       260
    20.2800       268
    20.3000       234
    20.3200       266
    20.3400       286
    20.3600       262
    20.3800       320
    20.4000       282
    20.4200       258
    20.4400       260
    20.4600       252
    20.4800       262
    20.5000       298
    20.5200       286
    20.5400       272
    20.5600       302
    20.5800       292
    20.6000       308
    20.6200       260
    20.6400       266
    20.6600       282
    20.6800       300
    20.7000       366
    20.7200       364
    20.7400       382
    20.7600       366
    20.7800       392
    20.8000       382
    20.8200       316
    20.8400       332
    20.8600       314
    20.8800       322
    20.9000       286
    20.9200       306
    20.9400       296
    20.9600       300
    20.9800       286
    21.0000       296
    21.0200       288
    21.0400       288
    21.0600       288
    21.0800       288
    21.1000       300
    21.1200       270
    21.1400       298
    21.1600       296
    21.1800       280
    21.2000       308
    21.2200       288
    21.2400       274
    21.2600       320
    21.2800       298
    21.3000       292
    21.3200       298
    21.3400       280
    21.3600       302
    21.3800       320
    21.4000       296
    21.4200       298
    21.4400       286
    21.4600       314
    21.4800       314
    21.5000       308
    21.5200       310
    21.5400       296
    21.5600       294
    21.5800       296
    21.6000       304
    21.6200       330
    21.6400       308
    21.6600       318
    21.6800       312
    21.7000       306
    21.7200       356
    21.7400       322
    21.7600       326
    21.7800       288
    21.8000       350
    21.8200       336
    21.8400       328
    21.8600       322
    21.8800       326
    21.9000       346
    21.9200       356
    21.9400       298
    21.9600       304
    21.9800       282
    22.0000       276
    22.0200       280
    22.0400       290
    22.0600       286
    22.0800       304
    22.1000       288
    22.1200       306
    22.1400       276
    22.1600       314
    22.1800       304
    22.2000       312
    22.2200       290
    22.2400       310
    22.2600       270
    22.2800       304
    22.3000       324
    22.3200       292
    22.3400       332
    22.3600       286
    22.3800       314
    22.4000       310
    22.4200       312
    22.4400       292
    22.4600       324
    22.4800       270
    22.5000       304
    22.5200       300
    22.5400       304
    22.5600       308
    22.5800       334
    22.6000       318
    22.6200       304
    22.6400       308
    22.6600       308
    22.6800       324
    22.7000       302
    22.7200       304
    22.7400       282
    22.7600       298
    22.7800       318
    22.8000       274
    22.8200       332
    22.8400       286
    22.8600       318
    22.8800       294
    22.9000       302
    22.9200       298
    22.9400       284
    22.9600       322
    22.9800       324
    23.0000       314
    23.0200       288
    23.0400       328
    23.0600       306
    23.0800       306
    23.1000       280
    23.1200       302
    23.1400       284
    23.1600       272
    23.1800       314
    23.2000       302
    23.2200       302
    23.2400       270
    23.2600       266
    23.2800       314
    23.3000       274
    23.3200       340
    23.3400       276
    23.3600       294
    23.3800       288
    23.4000       288
    23.4200       286
    23.4400       326
    23.4600       286
    23.4800       326
    23.5000       324
    23.5200       264
    23.5400       270
    23.5600       278
    23.5800       278
    23.6000       290
    23.6200       262
    23.6400       278
    23.6600       282
    23.6800       256
    23.7000       254
    23.7200       272
    23.7400       274
    23.7600       308
    23.7800       278
    23.8000       258
    23.8200       278
    23.8400       272
    23.8600       294
    23.8800       286
    23.9000       294
    23.9200       240
    23.9400       266
    23.9600       276
    23.9800       290
    24.0000       250
    24.0200       264
    24.0400       284
    24.0600       268
    24.0800       266
    24.1000       282
    24.1200       270
    24.1400       268
    24.1600       264
    24.1800       262
    24.2000       264
    24.2200       290
    24.2400       254
    24.2600       302
    24.2800       270
    24.3000       290
    24.3200       268
    24.3400       312
    24.3600       296
    24.3800       246
    24.4000       268
    24.4200       268
    24.4400       242
    24.4600       250
    24.4800       272
    24.5000       288
    24.5200       240
    24.5400       234
    24.5600       252
    24.5800       230
    24.6000       232
    24.6200       250
    24.6400       264
    24.6600       198
    24.6800       264
    24.7000       258
    24.7200       266
    24.7400       232
    24.7600       242
    24.7800       220
    24.8000       242
    24.8200       262
    24.8400       226
    24.8600       242
    24.8800       230
    24.9000       240
    24.9200       250
    24.9400       260
    24.9600       244
    24.9800       226
    25.0000       220
    25.0200       224
    25.0400       228
    25.0600       228
    25.0800       258
    25.1000       212
    25.1200       248
    25.1400       248
    25.1600       256
    25.1800       202
    25.2000       222
    25.2200       234
    25.2400       228
    25.2600       252
    25.2800       238
    25.3000       226
    25.3200       218
    25.3400       234
    25.3600       230
    25.3800       242
    25.4000       228
    25.4200       194
    25.4400       224
    25.4600       232
    25.4800       200
    25.5000       250
    25.5200       224
    25.5400       232
    25.5600       288
    25.5800       264
    25.6000       268
    25.6200       234
    25.6400       254
    25.6600       272
    25.6800       218
    25.7000       228
    25.7200       204
    25.7400       226
    25.7600       224
    25.7800       228
    25.8000       206
    25.8200       218
    25.8400       214
    25.8600       194
    25.8800       190
    25.9000       186
    25.9200       186
    25.9400       180
    25.9600       196
    25.9800       232
    26.0000       190
    26.0200       202
    26.0400       202
    26.0600       196
    26.0800       196
    26.1000       220
    26.1200       206
    26.1400       190
    26.1600       186
    26.1800       206
    26.2000       224
    26.2200       194
    26.2400       218
    26.2600       220
    26.2800       200
    26.3000       232
    26.3200       204
    26.3400       228
    26.3600       232
    26.3800       226
    26.4000       226
    26.4200       254
    26.4400       284
    26.4600       282
    26.4800       306
    26.5000       302
    26.5200       306
    26.5400       340
    26.5600       350
    26.5800       320
    26.6000       336
    26.6200       268
    26.6400       250
    26.6600       256
    26.6800       222
    26.7000       226
    26.7200       190
    26.7400       178
    26.7600       192
    26.7800       190
    26.8000       202
    26.8200       184
    26.8400       188
    26.8600       190
    26.8800       182
    26.9000       184
    26.9200       186
    26.9400       200
    26.9600       188
    26.9800       176
    27.0000       176
    27.0200       184
    27.0400       200
    27.0600       194
    27.0800       176
    27.1000       170
    27.1200       188
    27.1400       172
    27.1600       204
    27.1800       204
    27.2000       184
    27.2200       192
    27.2400       204
    27.2600       202
    27.2800       198
    27.3000       194
    27.3200       196
    27.3400       184
    27.3600       186
    27.3800       190
    27.4000       174
    27.4200       190
    27.4400       192
    27.4600       196
    27.4800       188
    27.5000       198
    27.5200       192
    27.5400       200
    27.5600       210
    27.5800       186
    27.6000       216
    27.6200       202
    27.6400       202
    27.6600       226
    27.6800       232
    27.7000       230
    27.7200       248
    27.7400       240
    27.7600       256
    27.7800       244
    27.8000       298
    27.8200       278
    27.8400       294
    27.8600       328
    27.8800       454
    27.9000       562
    27.9200       440
    27.9400       410
    27.9600       354
    27.9800       324
    28.0000       250
    28.0200       198
    28.0400       172
    28.0600       182
    28.0800       186
    28.1000       186
    28.1200       158
    28.1400       162
    28.1600       180
    28.1800       166
    28.2000       180
    28.2200       154
    28.2400       158
    28.2600       170
    28.2800       144
    28.3000       172
    28.3200       172
    28.3400       176
    28.3600       162
    28.3800       148
    28.4000       168
    28.4200       148
    28.4400       156
    28.4600       162
    28.4800       152
    28.5000       146
    28.5200       154
    28.5400       150
    28.5600       142
    28.5800       148
    28.6000       138
    28.6200       142
    28.6400       158
    28.6600       148
    28.6800       168
    28.7000       194
    28.7200       154
    28.7400       136
    28.7600       146
    28.7800       142
    28.8000       132
    28.8200       140
    28.8400       134
    28.8600       144
    28.8800       138
    28.9000       138
    28.9200       140
    28.9400       130
    28.9600       158
    28.9800       136
    29.0000       152
    29.0200       138
    29.0400       124
    29.0600       134
    29.0800       126
    29.1000       134
    29.1200       144
    29.1400       124
    29.1600       116
    29.1800       158
    29.2000       142
    29.2200       168
    29.2400       138
    29.2600       144
    29.2800       136
    29.3000       106
    29.3200       140
    29.3400       122
    29.3600       138
    29.3800       154
    29.4000       100
    29.4200       144
    29.4400       146
    29.4600       104
    29.4800       144
    29.5000       140
    29.5200       122
    29.5400       150
    29.5600       118
    29.5800       128
    29.6000       144
    29.6200       124
    29.6400       134
    29.6600       160
    29.6800       122
    29.7000       132
    29.7200       124
    29.7400       122
    29.7600       152
    29.7800       124
    29.8000       160
    29.8200       142
    29.8400       136
    29.8600       160
    29.8800       126
    29.9000       138
    29.9200       156
    29.9400       120
    29.9600       144
    29.9800       132
    30.0000       150
    30.0200       116
    30.0400       126
    30.0600       124
    30.0800       154
    30.1000       106
    30.1200       136
    30.1400       144
    30.1600       150
    30.1800       142
    30.2000       164
    30.2200       148
    30.2400       128
    30.2600       116
    30.2800       158
    30.3000       136
    30.3200       118
    30.3400       124
    30.3600       110
    30.3800       118
    30.4000       136
    30.4200       120
    30.4400       128
    30.4600       136
    30.4800       126
    30.5000       116
    30.5200       128
    30.5400       130
    30.5600       120
    30.5800       132
    30.6000       126
    30.6200       116
    30.6400       132
    30.6600       138
    30.6800       132
    30.7000       118
    30.7200       130
    30.7400       134
    30.7600       106
    30.7800       138
    30.8000       116
    30.8200       122
    30.8400       122
    30.8600       104
    30.8800       120
    30.9000       126
    30.9200       110
    30.9400       134
    30.9600       114
    30.9800       120
    31.0000       106
    31.0200       128
    31.0400       106
    31.0600       124
    31.0800       126
    31.1000       138
    31.1200       116
    31.1400       132
    31.1600       122
    31.1800       124
    31.2000       124
    31.2200       124
    31.2400       118
    31.2600       112
    31.2800       114
    31.3000       134
    31.3200       116
    31.3400       120
    31.3600       102
    31.3800       102
    31.4000        96
    31.4200       104
    31.4400       106
    31.4600       118
    31.4800       116
    31.5000       122
    31.5200       144
    31.5400       108
    31.5600       122
    31.5800        98
    31.6000       104
    31.6200       118
    31.6400       114
    31.6600       130
    31.6800       106
    31.7000       104
    31.7200       128
    31.7400       118
    31.7600       126
    31.7800        96
    31.8000       130
    31.8200       106
    31.8400        96
    31.8600       112
    31.8800       118
    31.9000       108
    31.9200       124
    31.9400       126
    31.9600        94
    31.9800       114
    32.0000       110
    32.0200       102
    32.0400       108
    32.0600       100
    32.0800       100
    32.1000       120
    32.1200       116
    32.1400       110
    32.1600       118
    32.1800       102
    32.2000       112
    32.2200        98
    32.2400       122
    32.2600       110
    32.2800        96
    32.3000       112
    32.3200       100
    32.3400       100
    32.3600       112
    32.3800       104
    32.4000       124
    32.4200        94
    32.4400        96
    32.4600       110
    32.4800       100
    32.5000        98
    32.5200       104
    32.5400       110
    32.5600       118
    32.5800       104
    32.6000       112
    32.6200       102
    32.6400       106
    32.6600       102
    32.6800       114
    32.7000       112
    32.7200       126
    32.7400       110
    32.7600       106
    32.7800       112
    32.8000       122
    32.8200       114
    32.8400        92
    32.8600        98
    32.8800        94
    32.9000        96
    32.9200       120
    32.9400       124
    32.9600       110
    32.9800       102
    33.0000       124
    33.0200        98
    33.0400        86
    33.0600        82
    33.0800       116
    33.1000       122
    33.1200        92
    33.1400       124
    33.1600        96
    33.1800       122
    33.2000       108
    33.2200       106
    33.2400       118
    33.2600        98
    33.2800       114
    33.3000        96
    33.3200        94
    33.3400       122
    33.3600       104
    33.3800       112
    33.4000        92
    33.4200        96
    33.4400       120
    33.4600       108
    33.4800       120
    33.5000       118
    33.5200        94
    33.5400        98
    33.5600       112
    33.5800        86
    33.6000       114
    33.6200       112
    33.6400       104
    33.6600       102
    33.6800       132
    33.7000        80
    33.7200        92
    33.7400       110
    33.7600        96
    33.7800       118
    33.8000        88
    33.8200       104
    33.8400        92
    33.8600        96
    33.8800        88
    33.9000        96
    33.9200        94
    33.9400        90
    33.9600        88
    33.9800       112
    34.0000       102
    34.0200       110
    34.0400        86
    34.0600       102
    34.0800        88
    34.1000        92
    34.1200        98
    34.1400       104
    34.1600       116
    34.1800        90
    34.2000       126
    34.2200       116
    34.2400       106
    34.2600       114
    34.2800       116
    34.3000        92
    34.3200       114
    34.3400        98
    34.3600       104
    34.3800        98
    34.4000       100
    34.4200        84
    34.4400       104
    34.4600       100
    34.4800        86
    34.5000       110
    34.5200        88
    34.5400       114
    34.5600       112
    34.5800       110
    34.6000        94
    34.6200       104
    34.6400       106
    34.6600        94
    34.6800       102
    34.7000       108
    34.7200        90
    34.7400       104
    34.7600        82
    34.7800       116
    34.8000        96
    34.8200       118
    34.8400        94
    34.8600       106
    34.8800       106
    34.9000        92
    34.9200        96
    34.9400       102
    34.9600       100
    34.9800       102
    35.0000        96
    35.0200       100
    35.0400       100
    35.0600       116
    35.0800        86
    35.1000        94
    35.1200       100
    35.1400       102
    35.1600       118
    35.1800        94
    35.2000        90
    35.2200        78
    35.2400        80
    35.2600       100
    35.2800        94
    35.3000       100
    35.3200       112
    35.3400       104
    35.3600        96
    35.3800        94
    35.4000        88
    35.4200        94
    35.4400       102
    35.4600       104
    35.4800       102
    35.5000       110
    35.5200        92
    35.5400       124
    35.5600        96
    35.5800        94
    35.6000       106
    35.6200        92
    35.6400        82
    35.6600       110
    35.6800        96
    35.7000        98
    35.7200        88
    35.7400        92
    35.7600        86
    35.7800        98
    35.8000        98
    35.8200       114
    35.8400        78
    35.8600        98
    35.8800        98
    35.9000        98
    35.9200       102
    35.9400       104
    35.9600        88
    35.9800       100
    36.0000        76
    36.0200        90
    36.0400       106
    36.0600        88
    36.0800       104
    36.1000        96
    36.1200       112
    36.1400        94
    36.1600        92
    36.1800        84
    36.2000       102
    36.2200        86
    36.2400        92
    36.2600        92
    36.2800       118
    36.3000        98
    36.3200        98
    36.3400        96
    36.3600        98
    36.3800        98
    36.4000        94
    36.4200        92
    36.4400        82
    36.4600       114
    36.4800       100
    36.5000        92
    36.5200       112
    36.5400       102
    36.5600        84
    36.5800        90
    36.6000        80
    36.6200        90
    36.6400        82
    36.6600        82
    36.6800        98
    36.7000       110
    36.7200       110
    36.7400       104
    36.7600        78
    36.7800        90
    36.8000        98
    36.8200        94
    36.8400        98
    36.8600       108
    36.8800        82
    36.9000        88
    36.9200        88
    36.9400        92
    36.9600        88
    36.9800        98
    37.0000        88
    37.0200        86
    37.0400       100
    37.0600        88
    37.0800        90
    37.1000        86
    37.1200        84
    37.1400       114
    37.1600       104
    37.1800        90
    37.2000        98
    37.2200        94
    37.2400        86
    37.2600        82
    37.2800        94
    37.3000        98
    37.3200        90
    37.3400        84
    37.3600        98
    37.3800        98
    37.4000        78
    37.4200        98
    37.4400        90
    37.4600        90
    37.4800        80
    37.5000        98
    37.5200        90
    37.5400       100
    37.5600        92
    37.5800        78
    37.6000        74
    37.6200        78
    37.6400        68
    37.6600        94
    37.6800        90
    37.7000        78
    37.7200       106
    37.7400        92
    37.7600        86
    37.7800        74
    37.8000        90
    37.8200        98
    37.8400        78
    37.8600        72
    37.8800        96
    37.9000        84
    37.9200        82
    37.9400        84
    37.9600        80
    37.9800       104
    38.0000        68
    38.0200        82
    38.0400        98
    38.0600        88
    38.0800        98
    38.1000       106
    38.1200        84
    38.1400        82
    38.1600        80
    38.1800        86
    38.2000        82
    38.2200        94
    38.2400        84
    38.2600        88
    38.2800        72
    38.3000        92
    38.3200        82
    38.3400        58
    38.3600        88
    38.3800        84
    38.4000        80
    38.4200        96
    38.4400        82
    38.4600        84
    38.4800        84
    38.5000        94
    38.5200        80
    38.5400        76
    38.5600        96
    38.5800        90
    38.6000        80
    38.6200        84
    38.6400        72
    38.6600        94
    38.6800        78
    38.7000        70
    38.7200        90
    38.7400        82
    38.7600        82
    38.7800        72
    38.8000        74
    38.8200        82
    38.8400        80
    38.8600        78
    38.8800        80
    38.9000        92
    38.9200        80
    38.9400        88
    38.9600        92
    38.9800        80
    39.0000        78
    39.0200        96
    39.0400        82
    39.0600        92
    39.0800        84
    39.1000        88
    39.1200        90
    39.1400        66
    39.1600        90
    39.1800        72
    39.2000        88
    39.2200        84
    39.2400        90
    39.2600        84
    39.2800        86
    39.3000        84
    39.3200        78
    39.3400        78
    39.3600        76
    39.3800        96
    39.4000        88
    39.4200        92
    39.4400        94
    39.4600        86
    39.4800        92
    39.5000        68
    39.5200        88
    39.5400        86
    39.5600        74
    39.5800        76
    39.6000        82
    39.6200        72
    39.6400        82
    39.6600        80
    39.6800        72
    39.7000        86
    39.7200        84
    39.7400        74
    39.7600        76
    39.7800        78
    39.8000        78
    39.8200        80
    39.8400        74
    39.8600        78
    39.8800        78
    39.9000        64
    39.9200        72
    39.9400        80
    39.9600        76
    39.9800        88
    40.0000        80
    40.0200        76
    40.0400        58
    40.0600        80
    40.0800        96
    40.1000        76
    40.1200        62
    40.1400        80
    40.1600        78
    40.1800        92
    40.2000        70
    40.2200        78
    40.2400        72
    40.2600        74
    40.2800        80
    40.3000        80
    40.3200        70
    40.3400        90
    40.3600        74
    40.3800       102
    40.4000        76
    40.4200        94
    40.4400        58
    40.4600        70
    40.4800        72
    40.5000        76
    40.5200        84
    40.5400        70
    40.5600        76
    40.5800        84
    40.6000        84
    40.6200        78
    40.6400       102
    40.6600        84
    40.6800        68
    40.7000        76
    40.7200        56
    40.7400        60
    40.7600        84
    40.7800        78
    40.8000        62
    40.8200        88
    40.8400        80
    40.8600        74
    40.8800        74
    40.9000        88
    40.9200       100
    40.9400        78
    40.9600        72
    40.9800        72
    41.0000        74
    41.0200        76
    41.0400        86
    41.0600        76
    41.0800        74
    41.1000        62
    41.1200       100
    41.1400        68
    41.1600        72
    41.1800        90
    41.2000        68
    41.2200        72
    41.2400        76
    41.2600        72
    41.2800        88
    41.3000        82
    41.3200        92
    41.3400        70
    41.3600        80
    41.3800        90
    41.4000        90
    41.4200        56
    41.4400        60
    41.4600        78
    41.4800        64
    41.5000        72
    41.5200        90
    41.5400        88
    41.5600        84
    41.5800        62
    41.6000        78
    41.6200        88
    41.6400        88
    41.6600        98
    41.6800        66
    41.7000        76
    41.7200        82
    41.7400        78
    41.7600        72
    41.7800        82
    41.8000        64
    41.8200        76
    41.8400        80
    41.8600        66
    41.8800        76
    41.9000        78
    41.9200        74
    41.9400        72
    41.9600        74
    41.9800        70
    42.0000        80
    42.0200        84
    42.0400        84
    42.0600        74
    42.0800        76
    42.1000        78
    42.1200        70
    42.1400        82
    42.1600        86
    42.1800        78
    42.2000        56
    42.2200        98
    42.2400       100
    42.2600        72
    42.2800        82
    42.3000       100
    42.3200        86
    42.3400       100
    42.3600        84
    42.3800        90
    42.4000        90
    42.4200        76
    42.4400        80
    42.4600        80
    42.4800        86
    42.5000        76
    42.5200        68
    42.5400        86
    42.5600        82
    42.5800        74
    42.6000        66
    42.6200        76
    42.6400        72
    42.6600        88
    42.6800        82
    42.7000        74
    42.7200        82
    42.7400        88
    42.7600        70
    42.7800        84
    42.8000        84
    42.8200        94
    42.8400        74
    42.8600        78
    42.8800        72
    42.9000        76
    42.9200        72
    42.9400        84
    42.9600        76
    42.9800        78
    43.0000        98
    43.0200        76
    43.0400        82
    43.0600        68
    43.0800        76
    43.1000        98
    43.1200        94
    43.1400        74
    43.1600        62
    43.1800        88
    43.2000        82
    43.2200        64
    43.2400       108
    43.2600        84
    43.2800        72
    43.3000        82
    43.3200        88
    43.3400        82
    43.3600        66
    43.3800        72
    43.4000        90
    43.4200        88
    43.4400        86
    43.4600        92
    43.4800        82
    43.5000        74
    43.5200        70
    43.5400        72
    43.5600        82
    43.5800        82
    43.6000        76
    43.6200        62
    43.6400        70
    43.6600        72
    43.6800        80
    43.7000        76
    43.7200        82
    43.7400        62
    43.7600        76
    43.7800        78
    43.8000        98
    43.8200        90
    43.8400        76
    43.8600        68
    43.8800        72
    43.9000        76
    43.9200        74
    43.9400        78
    43.9600        80
    43.9800        62
    44.0000        82
    44.0200        76
    44.0400        90
    44.0600        70
    44.0800        70
    44.1000        74
    44.1200        78
    44.1400        86
    44.1600        76
    44.1800        78
    44.2000        74
    44.2200        72
    44.2400        76
    44.2600        70
    44.2800        76
    44.3000        76
    44.3200        76
    44.3400        80
    44.3600        66
    44.3800       106
    44.4000        92
    44.4200        82
    44.4400        68
    44.4600        76
    44.4800        84
    44.5000        90
    44.5200        72
    44.5400        68
    44.5600        72
    44.5800        72
    44.6000        76
    44.6200        64
    44.6400        76
    44.6600        74
    44.6800        76
    44.7000        68
    44.7200        84
    44.7400        72
    44.7600        80
    44.7800        64
    44.8000        68
    44.8200        84
    44.8400        78
    44.8600        92
    44.8800        82
    44.9000        72
    44.9200        66
    44.9400        78
    44.9600        86
    44.9800        88
    45.0000        86
    45.0200        60
    45.0400        70
    45.0600        70
    45.0800        70
    45.1000        86
    45.1200        62
    45.1400        82
    45.1600        84
    45.1800        88
    45.2000        80
    45.2200        76
    45.2400        88
    45.2600        96
    45.2800        82
    45.3000        76
    45.3200        62
    45.3400        78
    45.3600        78
    45.3800        72
    45.4000        66
    45.4200        76
    45.4400        80
    45.4600        76
    45.4800        66
    45.5000        74
    45.5200        72
    45.5400        80
    45.5600        78
    45.5800        86
    45.6000        82
    45.6200        86
    45.6400        84
    45.6600        76
    45.6800        98
    45.7000        80
    45.7200        76
    45.7400        94
    45.7600        82
    45.7800        80
    45.8000        92
    45.8200        74
    45.8400        76
    45.8600        92
    45.8800        76
    45.9000        80
    45.9200        70
    45.9400        74
    45.9600        72
    45.9800        92
    46.0000        84
    46.0200        84
    46.0400        64
    46.0600        70
    46.0800        88
    46.1000        66
    46.1200        68
    46.1400        56
    46.1600        74
    46.1800        82
    46.2000        76
    46.2200        84
    46.2400        64
    46.2600        82
    46.2800        88
    46.3000        70
    46.3200        68
    46.3400        66
    46.3600        74
    46.3800        68
    46.4000        70
    46.4200        78
    46.4400        78
    46.4600        76
    46.4800        80
    46.5000        62
    46.5200        86
    46.5400        98
    46.5600        70
    46.5800        54
    46.6000        74
    46.6200        82
    46.6400        86
    46.6600        80
    46.6800        78
    46.7000        72
    46.7200        70
    46.7400        78
    46.7600        78
    46.7800        78
    46.8000        76
    46.8200        80
    46.8400        74
    46.8600        70
    46.8800        64
    46.9000        68
    46.9200        80
    46.9400        70
    46.9600        76
    46.9800        64
    47.0000        70
    47.0200       102
    47.0400        60
    47.0600        78
    47.0800        80
    47.1000        64
    47.1200        86
    47.1400        66
    47.1600        72
    47.1800        74
    47.2000        74
    47.2200        84
    47.2400        74
    47.2600        84
    47.2800        64
    47.3000        90
    47.3200        86
    47.3400        68
    47.3600        88
    47.3800        62
    47.4000        66
    47.4200        76
    47.4400        68
    47.4600        78
    47.4800        56
    47.5000        58
    47.5200        72
    47.5400        70
    47.5600        62
    47.5800        76
    47.6000        76
    47.6200        74
    47.6400        60
    47.6600        78
    47.6800        70
    47.7000        82
    47.7200        88
    47.7400        78
    47.7600        60
    47.7800        66
    47.8000        72
    47.8200        62
    47.8400        94
    47.8600        68
    47.8800        84
    47.9000        76
    47.9200        56
    47.9400        74
    47.9600        68
    47.9800        82
    48.0000        76
    48.0200        70
    48.0400        74
    48.0600        72
    48.0800        60
    48.1000        84
    48.1200        86
    48.1400        56
    48.1600        62
    48.1800        88
    48.2000        62
    48.2200        66
    48.2400        68
    48.2600        82
    48.2800        82
    48.3000        78
    48.3200        80
    48.3400        86
    48.3600        64
    48.3800        88
    48.4000        72
    48.4200        74
    48.4400        70
    48.4600        70
    48.4800        70
    48.5000        74
    48.5200        78
    48.5400        70
    48.5600        82
    48.5800        68
    48.6000        70
    48.6200        78
    48.6400        84
    48.6600        56
    48.6800       102
    48.7000        78
    48.7200        72
    48.7400        68
    48.7600        88
    48.7800        76
    48.8000        64
    48.8200        70
    48.8400        50
    48.8600        82
    48.8800        76
    48.9000        68
    48.9200        68
    48.9400        70
    48.9600        76
    48.9800        60
    49.0000        90
    49.0200        70
    49.0400        74
    49.0600        84
    49.0800        80
    49.1000        64
    49.1200        54
    49.1400        70
    49.1600        70
    49.1800        78
    49.2000        64
    49.2200        78
    49.2400        76
    49.2600        88
    49.2800        72
    49.3000        66
    49.3200        68
    49.3400        64
    49.3600        68
    49.3800        82
    49.4000        88
    49.4200        76
    49.4400        80
    49.4600        74
    49.4800        80
    49.5000        72
    49.5200        76
    49.5400        70
    49.5600        80
    49.5800        80
    49.6000        80
    49.6200        78
    49.6400        66
    49.6600        72
    49.6800        82
    49.7000        70
    49.7200        76
    49.7400        92
    49.7600        64
    49.7800        66
    49.8000        82
    49.8200        66
    49.8400        64
    49.8600        90
    49.8800        78
    49.9000        72
    49.9200        66
    49.9400        86
    49.9600        84
    49.9800        88
    50.0000       106
    50.0200        92
    50.0400       106
    50.0600        96
    50.0800        88
    50.1000        90
    50.1200        84
    50.1400        90
    50.1600        92
    50.1800        94
    50.2000        88
    50.2200        76
    50.2400        82
    50.2600        72
    50.2800        64
    50.3000        74
    50.3200        60
    50.3400        80
    50.3600        74
    50.3800        50
    50.4000        58
    50.4200        64
    50.4400        78
    50.4600        58
    50.4800        68
    50.5000        62
    50.5200        76
    50.5400        72
    50.5600        56
    50.5800        86
    50.6000        52
    50.6200        72
    50.6400        66
    50.6600        80
    50.6800        82
    50.7000        68
    50.7200        74
    50.7400        74
    50.7600        78
    50.7800        80
    50.8000        64
    50.8200        64
    50.8400        70
    50.8600        62
    50.8800        72
    50.9000        68
    50.9200        60
    50.9400        64
    50.9600        86
    50.9800        68
    51.0000        84
    51.0200        70
    51.0400        62
    51.0600        76
    51.0800        74
    51.1000        80
    51.1200        78
    51.1400        76
    51.1600        76
    51.1800        64
    51.2000        84
    51.2200        68
    51.2400        92
    51.2600        70
    51.2800        58
    51.3000        64
    51.3200        62
    51.3400        66
    51.3600        84
    51.3800        92
    51.4000        78
    51.4200        66
    51.4400        80
    51.4600        74
    51.4800        68
    51.5000        92
    51.5200        62
    51.5400        74
    51.5600        64
    51.5800        54
    51.6000        64
    51.6200        86
    51.6400        76
    51.6600        72
    51.6800        68
    51.7000        86
    51.7200        60
    51.7400        74
    51.7600        82
    51.7800        80
    51.8000        70
    51.8200        68
    51.8400        66
    51.8600        66
    51.8800        70
    51.9000        66
    51.9200        76
    51.9400        64
    51.9600        78
    51.9800        66
    52.0000        86
    52.0200        74
    52.0400        70
    52.0600        64
    52.0800        68
    52.1000        62
    52.1200        70
    52.1400        76
    52.1600        78
    52.1800        68
    52.2000        66
    52.2200        68
    52.2400        66
    52.2600        92
    52.2800        64
    52.3000        64
    52.3200        70
    52.3400        66
    52.3600       100
    52.3800        66
    52.4000        70
    52.4200        82
    52.4400        72
    52.4600        66
    52.4800        72
    52.5000        78
    52.5200        74
    52.5400        68
    52.5600        62
    52.5800        64
    52.6000        68
    52.6200        56
    52.6400        76
    52.6600        54
    52.6800        76
    52.7000        64
    52.7200        78
    52.7400        68
    52.7600        66
    52.7800        74
    52.8000        66
    52.8200        78
    52.8400        74
    52.8600        68
    52.8800        68
    52.9000        62
    52.9200        72
    52.9400        78
    52.9600        62
    52.9800        72
    53.0000        66
    53.0200        70
    53.0400        76
    53.0600        80
    53.0800        54
    53.1000        64
    53.1200        78
    53.1400        62
    53.1600        80
    53.1800        58
    53.2000        74
    53.2200        52
    53.2400        78
    53.2600        56
    53.2800        68
    53.3000        66
    53.3200        68
    53.3400        84
    53.3600        68
    53.3800        62
    53.4000        56
    53.4200        64
    53.4400        72
    53.4600        66
    53.4800        78
    53.5000        78
    53.5200        52
    53.5400        58
    53.5600        72
    53.5800        90
    53.6000        78
    53.6200        82
    53.6400        68
    53.6600        64
    53.6800        56
    53.7000        68
    53.7200        82
    53.7400        82
    53.7600        56
    53.7800        82
    53.8000        58
    53.8200        62
    53.8400        68
    53.8600        54
    53.8800        84
    53.9000        48
    53.9200        78
    53.9400        80
    53.9600        74
    53.9800        80
    54.0000        54
    54.0200        70
    54.0400        74
    54.0600        64
    54.0800        64
    54.1000        74
    54.1200        66
    54.1400        66
    54.1600        66
    54.1800        70
    54.2000        72
    54.2200        74
    54.2400        76
    54.2600        72
    54.2800        76
    54.3000        70
    54.3200        62
    54.3400        70
    54.3600        60
    54.3800        58
    54.4000        68
    54.4200        76
    54.4400        74
    54.4600        64
    54.4800        64
    54.5000        56
    54.5200        72
    54.5400        88
    54.5600        78
    54.5800        66
    54.6000        78
    54.6200        80
    54.6400        78
    54.6600        60
    54.6800        68
    54.7000        80
    54.7200        84
    54.7400        82
    54.7600        80
    54.7800        72
    54.8000        80
    54.8200        92
    54.8400        60
    54.8600        74
    54.8800        68
    54.9000        80
    54.9200        58
    54.9400        76
    54.9600        72
    54.9800        76
    55.0000        76
    55.0200        74
    55.0400        66
    55.0600        60
    55.0800        68
    55.1000        68
    55.1200        76
    55.1400        68
    55.1600        70
    55.1800        80
    55.2000        68
    55.2200        68
    55.2400        68
    55.2600        76
    55.2800        76
    55.3000        80
    55.3200        78
    55.3400        78
    55.3600        58
    55.3800        64
    55.4000        62
    55.4200        68
    55.4400        74
    55.4600        64
    55.4800        70
    55.5000        76
    55.5200        52
    55.5400        70
    55.5600        54
    55.5800        70
    55.6000        68
    55.6200        84
    55.6400        78
    55.6600        66
    55.6800        70
    55.7000        72
    55.7200        88
    55.7400        66
    55.7600        74
    55.7800        76
    55.8000        78
    55.8200        64
    55.8400        86
    55.8600        76
    55.8800        64
    55.9000        56
    55.9200        70
    55.9400        64
    55.9600        76
    55.9800        80
    56.0000        74
    56.0200        68
    56.0400        74
    56.0600        70
    56.0800        70
    56.1000        64
    56.1200        68
    56.1400        82
    56.1600        70
    56.1800        60
    56.2000        66
    56.2200        70
    56.2400        66
    56.2600        60
    56.2800        62
    56.3000        70
    56.3200        66
    56.3400        80
    56.3600        74
    56.3800        58
    56.4000        64
    56.4200        52
    56.4400        84
    56.4600        86
    56.4800        48
    56.5000        66
    56.5200        56
    56.5400        68
    56.5600        46
    56.5800        82
    56.6000        86
    56.6200        82
    56.6400        64
    56.6600        76
    56.6800        60
    56.7000        54
    56.7200        66
    56.7400        88
    56.7600        64
    56.7800        74
    56.8000        76
    56.8200        78
    56.8400        66
    56.8600        50
    56.8800        72
    56.9000        74
    56.9200        90
    56.9400        66
    56.9600        84
    56.9800        68
    57.0000        58
    57.0200        90
    57.0400        64
    57.0600        80
    57.0800        86
    57.1000        62
    57.1200        66
    57.1400        60
    57.1600        62
    57.1800        56
    57.2000        52
    57.2200        70
    57.2400        68
    57.2600        68
    57.2800       110
    57.3000        62
    57.3200        76
    57.3400        76
    57.3600        72
    57.3800        68
    57.4000        66
    57.4200        80
    57.4400        90
    57.4600        76
    57.4800        78
    57.5000        60
    57.5200        88
    57.5400        66
    57.5600        64
    57.5800        66
    57.6000        92
    57.6200        82
    57.6400        80
    57.6600        76
    57.6800        68
    57.7000        72
    57.7200        68
    57.7400        60
    57.7600        70
    57.7800        70
    57.8000        68
    57.8200        72
    57.8400        62
    57.8600        70
    57.8800        66
    57.9000        68
    57.9200        78
    57.9400        68
    57.9600        56
    57.9800        80
    58.0000        84
    58.0200        72
    58.0400        64
    58.0600        64
    58.0800        74
    58.1000        80
    58.1200        74
    58.1400        78
    58.1600        58
    58.1800        64
    58.2000        80
    58.2200        66
    58.2400        76
    58.2600        64
    58.2800        82
    58.3000        80
    58.3200        66
    58.3400        60
    58.3600        70
    58.3800        64
    58.4000        62
    58.4200        78
    58.4400        68
    58.4600        66
    58.4800        78
    58.5000        58
    58.5200        68
    58.5400        68
    58.5600        64
    58.5800        62
    58.6000        68
    58.6200        76
    58.6400        72
    58.6600        84
    58.6800        70
    58.7000        74
    58.7200        62
    58.7400        68
    58.7600        74
    58.7800        64
    58.8000        68
    58.8200        66
    58.8400        76
    58.8600        78
    58.8800        78
    58.9000        76
    58.9200        68
    58.9400        78
    58.9600        62
    58.9800        70
    59.0000        84
    59.0200        60
    59.0400        68
    59.0600        80
    59.0800        74
    59.1000        68
    59.1200        76
    59.1400        62
    59.1600        64
    59.1800        64
    59.2000        46
    59.2200        78
    59.2400        78
    59.2600        76
    59.2800        64
    59.3000        62
    59.3200        84
    59.3400        74
    59.3600        64
    59.3800        60
    59.4000        62
    59.4200        68
    59.4400        72
    59.4600        76
    59.4800        62
    59.5000        56
    59.5200        80
    59.5400        68
    59.5600        70
    59.5800        74
    59.6000        52
    59.6200        64
    59.6400        56
    59.6600        60
    59.6800        76
    59.7000        58
    59.7200        64
    59.7400        72
    59.7600        90
    59.7800        60
    59.8000        82
    59.8200        84
    59.8400        84
    59.8600        96
    59.8800        88
    59.9000        84
    59.9200        88
    59.9400        80
    59.9600        78
    59.9800        70
    60.0000        94
    60.0200        74
    60.0400        82
    60.0600        94
    60.0800        78
    60.1000        82
    60.1200        80
    60.1400        68
    60.1600        82
    60.1800        80
    60.2000        58
    60.2200        70
    60.2400        62
    60.2600        80
    60.2800        78
    60.3000        68
    60.3200        64
    60.3400        72
    60.3600        58
    60.3800        78
    60.4000        66
    60.4200        68
    60.4400        78
    60.4600        74
    60.4800        84
    60.5000        58
    60.5200        70
    60.5400        52
    60.5600        92
    60.5800        80
    60.6000        72
    60.6200        70
    60.6400        66
    60.6600        80
    60.6800        74
    60.7000        68
    60.7200        58
    60.7400        74
    60.7600        74
    60.7800        66
    60.8000        72
    60.8200        72
    60.8400        74
    60.8600        76
    60.8800        52
    60.9000        76
    60.9200        86
    60.9400        64
    60.9600        82
    60.9800        76
    61.0000        62
    61.0200        70
    61.0400        72
    61.0600        76
    61.0800        78
    61.1000        56
    61.1200        80
    61.1400        72
    61.1600        84
    61.1800        80
    61.2000        82
    61.2200        78
    61.2400        64
    61.2600        82
    61.2800        64
    61.3000        62
    61.3200        74
    61.3400        76
    61.3600        76
    61.3800        78
    61.4000        72
    61.4200        74
    61.4400        70
    61.4600        84
    61.4800        84
    61.5000        82
    61.5200        68
    61.5400        72
    61.5600        82
    61.5800        56
    61.6000        76
    61.6200        72
    61.6400        74
    61.6600        70
    61.6800        76
    61.7000        60
    61.7200        78
    61.7400        64
    61.7600        76
    61.7800        72
    61.8000        72
    61.8200        74
    61.8400        76
    61.8600        74
    61.8800        68
    61.9000        58
    61.9200        82
    61.9400        82
    61.9600        72
    61.9800        78
    62.0000        72
    62.0200        56
    62.0400        86
    62.0600        72
    62.0800        58
    62.1000        74
    62.1200        94
    62.1400        68
    62.1600        68
    62.1800        72
    62.2000        76
    62.2200        80
    62.2400        74
    62.2600        66
    62.2800        78
    62.3000        66
    62.3200        72
    62.3400        70
    62.3600        68
    62.3800        68
    62.4000        84
    62.4200        68
    62.4400        88
    62.4600        60
    62.4800        80
    62.5000        88
    62.5200        78
    62.5400        78
    62.5600        62
    62.5800        78
    62.6000        84
    62.6200        66
    62.6400        76
    62.6600        66
    62.6800        84
    62.7000        72
    62.7200        66
    62.7400        88
    62.7600        74
    62.7800        70
    62.8000        66
    62.8200        70
    62.8400        56
    62.8600        66
    62.8800        74
    62.9000        56
    62.9200        72
    62.9400        68
    62.9600        66
    62.9800        76
    63.0000        60
    63.0200        72
    63.0400        54
    63.0600        60
    63.0800        60
    63.1000        74
    63.1200        62
    63.1400        64
    63.1600        56
    63.1800        64
    63.2000        72
    63.2200        72
    63.2400        68
    63.2600        68
    63.2800        70
    63.3000        72
    63.3200        78
    63.3400        82
    63.3600        74
    63.3800        72
    63.4000        76
    63.4200        68
    63.4400        74
    63.4600        80
    63.4800        74
    63.5000        58
    63.5200        78
    63.5400        68
    63.5600        52
    63.5800        74
    63.6000        76
    63.6200        92
    63.6400        66
    63.6600        92
    63.6800        90
    63.7000        78
    63.7200        64
    63.7400        78
    63.7600        76
    63.7800        80
    63.8000        62
    63.8200        82
    63.8400        92
    63.8600        52
    63.8800        80
    63.9000        76
    63.9200        72
    63.9400        68
    63.9600        84
    63.9800        64
    64.0000        54
    64.0200        82
    64.0400        76
    64.0600        80
    64.0800        74
    64.1000        80
    64.1200        74
    64.1400        84
    64.1600        64
    64.1800        74
    64.2000        80
    64.2200        64
    64.2400        82
    64.2600        60
    64.2800        74
    64.3000        64
    64.3200        90
    64.3400        72
    64.3600        64
    64.3800        68
    64.4000        84
    64.4200        56
    64.4400        84
    64.4600        58
    64.4800        68
    64.5000        68
    64.5200        74
    64.5400        74
    64.5600        86
    64.5800        82
    64.6000        90
    64.6200        54
    64.6400        70
    64.6600        72
    64.6800        66
    64.7000        70
    64.7200        72
    64.7400        70
    64.7600        70
    64.7800        74
    64.8000        72
    64.8200        74
    64.8400        82
    64.8600        60
    64.8800        72
    64.9000        68
    64.9200        76
    64.9400        66
    64.9600        58
    64.9800        60
    65.0000        90
