/////////////////////////////////////////////////////////////////////////////////
/// Profile Data Ascii Dump (XRD)                                             ///
/////////////////////////////////////////////////////////////////////////////////

  Group     : Swayze
  Data      : WS220
  File Name : WS220.RAW

# Profile Datafile
          comment             = Geothite 
          date & time         = 08-04-08 07:29:36 

# Measurement Condition
    X-ray tube
          target              = Cu 
          voltage             = 40.0 (kV)
          current             = 30.0 (mA)
    Slits
          divergence slit     = 2.00000 (deg) 
          scatter slit        = 2.00000 (deg) 
          receiving slit      = 0.15000 (mm)  
    Scanning
          drive axis          = Theta-2Theta 
          scan range          =    4.000 -   65.000 
          scan mode           = Continuous Scan 
          scan speed          =   2.0000 (deg/min) 
          sampling pitch      =   0.0200 (deg) 
          preset time         =   0.60 (sec) 

# Data      [ Total No. = 3051 ]
  <2Theta>   <   I   >
     4.0000       194
     4.0200       168
     4.0400       202
     4.0600       190
     4.0800       196
     4.1000       188
     4.1200       200
     4.1400       194
     4.1600       176
     4.1800       196
     4.2000       200
     4.2200       178
     4.2400       168
     4.2600       192
     4.2800       208
     4.3000       170
     4.3200       204
     4.3400       196
     4.3600       212
     4.3800       168
     4.4000       170
     4.4200       208
     4.4400       174
     4.4600       168
     4.4800       142
     4.5000       180
     4.5200       176
     4.5400       180
     4.5600       156
     4.5800       194
     4.6000       172
     4.6200       150
     4.6400       178
     4.6600       182
     4.6800       160
     4.7000       148
     4.7200       152
     4.7400       198
     4.7600       168
     4.7800       170
     4.8000       184
     4.8200       166
     4.8400       152
     4.8600       162
     4.8800       174
     4.9000       156
     4.9200       144
     4.9400       158
     4.9600       190
     4.9800       168
     5.0000       188
     5.0200       162
     5.0400       156
     5.0600       182
     5.0800       170
     5.1000       176
     5.1200       146
     5.1400       170
     5.1600       156
     5.1800       154
     5.2000       152
     5.2200       170
     5.2400       148
     5.2600       148
     5.2800       168
     5.3000       178
     5.3200       158
     5.3400       178
     5.3600       154
     5.3800       166
     5.4000       144
     5.4200       170
     5.4400       162
     5.4600       178
     5.4800       160
     5.5000       158
     5.5200       164
     5.5400       158
     5.5600       168
     5.5800       170
     5.6000       150
     5.6200       148
     5.6400       164
     5.6600       168
     5.6800       152
     5.7000       156
     5.7200       168
     5.7400       156
     5.7600       160
     5.7800       172
     5.8000       156
     5.8200       138
     5.8400       154
     5.8600       156
     5.8800       168
     5.9000       170
     5.9200       164
     5.9400       158
     5.9600       148
     5.9800       152
     6.0000       166
     6.0200       172
     6.0400       166
     6.0600       154
     6.0800       158
     6.1000       168
     6.1200       152
     6.1400       160
     6.1600       166
     6.1800       132
     6.2000       162
     6.2200       152
     6.2400       158
     6.2600       158
     6.2800       140
     6.3000       138
     6.3200       168
     6.3400       158
     6.3600       162
     6.3800       148
     6.4000       132
     6.4200       158
     6.4400       144
     6.4600       148
     6.4800       126
     6.5000       154
     6.5200       130
     6.5400       152
     6.5600       130
     6.5800       130
     6.6000       154
     6.6200       148
     6.6400       146
     6.6600       126
     6.6800       138
     6.7000       136
     6.7200       132
     6.7400       130
     6.7600       134
     6.7800       140
     6.8000       156
     6.8200       130
     6.8400       132
     6.8600        98
     6.8800       130
     6.9000       142
     6.9200       130
     6.9400       114
     6.9600       100
     6.9800       118
     7.0000       128
     7.0200       118
     7.0400       122
     7.0600       136
     7.0800       120
     7.1000       112
     7.1200       122
     7.1400       136
     7.1600        92
     7.1800       118
     7.2000       110
     7.2200       108
     7.2400       110
     7.2600       140
     7.2800       140
     7.3000       136
     7.3200       114
     7.3400       122
     7.3600       136
     7.3800       122
     7.4000       106
     7.4200       142
     7.4400       108
     7.4600       116
     7.4800       122
     7.5000       130
     7.5200       114
     7.5400       118
     7.5600       114
     7.5800        88
     7.6000       106
     7.6200       114
     7.6400       108
     7.6600       132
     7.6800       120
     7.7000       124
     7.7200       106
     7.7400       112
     7.7600       140
     7.7800       140
     7.8000       118
     7.8200       110
     7.8400       130
     7.8600       122
     7.8800       114
     7.9000       114
     7.9200       118
     7.9400       108
     7.9600       128
     7.9800       118
     8.0000       134
     8.0200        96
     8.0400       110
     8.0600       112
     8.0800       112
     8.1000       114
     8.1200       120
     8.1400       134
     8.1600       116
     8.1800       120
     8.2000       126
     8.2200       126
     8.2400       148
     8.2600       122
     8.2800       114
     8.3000       134
     8.3200       130
     8.3400       106
     8.3600       100
     8.3800       118
     8.4000       104
     8.4200       130
     8.4400       104
     8.4600       132
     8.4800       118
     8.5000       114
     8.5200       116
     8.5400       130
     8.5600       120
     8.5800       112
     8.6000       144
     8.6200       144
     8.6400        84
     8.6600       122
     8.6800       136
     8.7000       128
     8.7200       120
     8.7400       114
     8.7600       118
     8.7800       122
     8.8000       138
     8.8200       116
     8.8400       116
     8.8600       138
     8.8800       120
     8.9000       118
     8.9200       126
     8.9400       120
     8.9600       108
     8.9800       138
     9.0000       116
     9.0200       118
     9.0400        94
     9.0600       104
     9.0800       142
     9.1000        98
     9.1200       130
     9.1400       114
     9.1600       102
     9.1800       122
     9.2000       118
     9.2200       124
     9.2400       102
     9.2600       102
     9.2800       104
     9.3000       110
     9.3200       110
     9.3400       104
     9.3600       120
     9.3800       124
     9.4000       132
     9.4200       102
     9.4400       106
     9.4600       128
     9.4800       108
     9.5000       120
     9.5200       130
     9.5400       122
     9.5600       112
     9.5800       122
     9.6000        98
     9.6200       126
     9.6400       134
     9.6600       110
     9.6800       104
     9.7000        92
     9.7200       116
     9.7400       114
     9.7600       110
     9.7800       116
     9.8000        98
     9.8200       110
     9.8400       112
     9.8600       108
     9.8800       116
     9.9000       116
     9.9200       106
     9.9400       116
     9.9600       126
     9.9800       104
    10.0000       106
    10.0200       112
    10.0400       124
    10.0600       102
    10.0800       110
    10.1000       108
    10.1200        94
    10.1400       104
    10.1600       118
    10.1800        92
    10.2000       116
    10.2200        90
    10.2400       106
    10.2600        94
    10.2800       110
    10.3000       106
    10.3200        86
    10.3400       112
    10.3600        98
    10.3800       120
    10.4000       120
    10.4200        94
    10.4400        94
    10.4600        86
    10.4800       100
    10.5000        96
    10.5200        82
    10.5400       106
    10.5600       112
    10.5800       100
    10.6000       112
    10.6200       102
    10.6400        90
    10.6600        96
    10.6800       122
    10.7000        86
    10.7200        98
    10.7400        88
    10.7600       116
    10.7800       112
    10.8000        94
    10.8200       108
    10.8400        92
    10.8600       104
    10.8800       104
    10.9000        98
    10.9200        98
    10.9400        88
    10.9600       100
    10.9800        98
    11.0000       100
    11.0200        96
    11.0400       104
    11.0600        88
    11.0800        98
    11.1000        78
    11.1200        86
    11.1400        86
    11.1600        96
    11.1800        90
    11.2000        84
    11.2200        76
    11.2400        90
    11.2600        98
    11.2800        96
    11.3000        72
    11.3200        98
    11.3400        86
    11.3600        82
    11.3800       100
    11.4000        92
    11.4200        88
    11.4400        80
    11.4600       104
    11.4800       102
    11.5000       104
    11.5200        72
    11.5400        96
    11.5600        86
    11.5800        86
    11.6000        88
    11.6200        92
    11.6400        86
    11.6600        82
    11.6800        78
    11.7000        86
    11.7200        92
    11.7400        76
    11.7600        82
    11.7800        80
    11.8000        82
    11.8200        74
    11.8400        76
    11.8600        90
    11.8800        86
    11.9000        80
    11.9200        96
    11.9400        86
    11.9600        84
    11.9800        88
    12.0000        80
    12.0200        88
    12.0400        72
    12.0600        80
    12.0800        78
    12.1000        90
    12.1200        98
    12.1400        74
    12.1600        72
    12.1800        88
    12.2000        76
    12.2200        92
    12.2400        76
    12.2600        80
    12.2800        78
    12.3000        78
    12.3200        94
    12.3400        68
    12.3600        68
    12.3800        74
    12.4000        88
    12.4200        86
    12.4400        90
    12.4600        86
    12.4800        76
    12.5000        76
    12.5200        86
    12.5400        76
    12.5600       100
    12.5800        84
    12.6000        88
    12.6200        84
    12.6400        82
    12.6600        78
    12.6800        64
    12.7000        80
    12.7200        78
    12.7400        76
    12.7600        68
    12.7800        70
    12.8000        84
    12.8200        76
    12.8400        90
    12.8600        88
    12.8800        66
    12.9000        56
    12.9200        76
    12.9400        74
    12.9600        94
    12.9800        72
    13.0000        74
    13.0200        80
    13.0400        84
    13.0600        84
    13.0800        58
    13.1000        80
    13.1200        70
    13.1400        78
    13.1600        64
    13.1800        84
    13.2000        76
    13.2200        72
    13.2400        50
    13.2600        60
    13.2800        70
    13.3000        72
    13.3200        82
    13.3400        64
    13.3600        74
    13.3800        84
    13.4000        68
    13.4200        76
    13.4400        72
    13.4600        64
    13.4800        76
    13.5000        82
    13.5200        68
    13.5400        62
    13.5600        74
    13.5800        74
    13.6000        84
    13.6200        66
    13.6400        50
    13.6600        72
    13.6800        62
    13.7000        62
    13.7200        62
    13.7400        56
    13.7600        72
    13.7800        62
    13.8000        84
    13.8200        66
    13.8400        68
    13.8600        70
    13.8800        66
    13.9000        82
    13.9200        70
    13.9400        58
    13.9600        58
    13.9800        96
    14.0000        78
    14.0200        56
    14.0400        86
    14.0600        84
    14.0800        62
    14.1000        60
    14.1200        90
    14.1400        84
    14.1600        68
    14.1800        52
    14.2000        78
    14.2200        62
    14.2400        82
    14.2600        60
    14.2800        64
    14.3000        54
    14.3200        82
    14.3400        82
    14.3600        68
    14.3800        72
    14.4000        66
    14.4200        64
    14.4400        60
    14.4600        74
    14.4800        66
    14.5000        74
    14.5200        80
    14.5400        62
    14.5600        70
    14.5800        78
    14.6000        64
    14.6200        52
    14.6400        60
    14.6600        68
    14.6800        58
    14.7000        58
    14.7200        60
    14.7400        60
    14.7600        72
    14.7800        60
    14.8000        66
    14.8200        56
    14.8400        70
    14.8600        52
    14.8800        58
    14.9000        72
    14.9200        60
    14.9400        66
    14.9600        58
    14.9800        56
    15.0000        44
    15.0200        60
    15.0400        62
    15.0600        60
    15.0800        86
    15.1000        48
    15.1200        86
    15.1400        60
    15.1600        58
    15.1800        88
    15.2000        72
    15.2200        70
    15.2400        64
    15.2600        58
    15.2800        74
    15.3000        70
    15.3200        62
    15.3400        56
    15.3600        70
    15.3800        62
    15.4000        62
    15.4200        64
    15.4400        62
    15.4600        62
    15.4800        66
    15.5000        58
    15.5200        66
    15.5400        62
    15.5600        78
    15.5800        66
    15.6000        48
    15.6200        52
    15.6400        78
    15.6600        64
    15.6800        52
    15.7000        58
    15.7200        70
    15.7400        70
    15.7600        72
    15.7800        64
    15.8000        76
    15.8200        72
    15.8400        48
    15.8600        48
    15.8800        52
    15.9000        64
    15.9200        52
    15.9400        70
    15.9600        58
    15.9800        66
    16.0000        66
    16.0200        60
    16.0400        62
    16.0600        66
    16.0800        62
    16.1000        62
    16.1200        54
    16.1400        68
    16.1600        62
    16.1800        66
    16.2000        54
    16.2200        64
    16.2400        52
    16.2600        46
    16.2800        54
    16.3000        38
    16.3200        58
    16.3400        74
    16.3600        58
    16.3800        50
    16.4000        50
    16.4200        78
    16.4400        64
    16.4600        58
    16.4800        60
    16.5000        58
    16.5200        76
    16.5400        52
    16.5600        58
    16.5800        52
    16.6000        60
    16.6200        56
    16.6400        60
    16.6600        72
    16.6800        62
    16.7000        82
    16.7200        38
    16.7400        52
    16.7600        64
    16.7800        72
    16.8000        74
    16.8200        64
    16.8400        54
    16.8600        56
    16.8800        52
    16.9000        66
    16.9200        62
    16.9400        54
    16.9600        52
    16.9800        58
    17.0000        58
    17.0200        54
    17.0400        46
    17.0600        56
    17.0800        70
    17.1000        54
    17.1200        68
    17.1400        64
    17.1600        54
    17.1800        56
    17.2000        56
    17.2200        70
    17.2400        52
    17.2600        52
    17.2800        58
    17.3000        56
    17.3200        62
    17.3400        64
    17.3600        72
    17.3800        58
    17.4000        68
    17.4200        72
    17.4400        66
    17.4600        84
    17.4800        70
    17.5000        44
    17.5200        66
    17.5400        64
    17.5600        68
    17.5800        82
    17.6000        74
    17.6200        70
    17.6400        64
    17.6600        82
    17.6800        74
    17.7000        70
    17.7200        60
    17.7400        68
    17.7600        66
    17.7800        54
    17.8000        72
    17.8200        80
    17.8400        58
    17.8600        56
    17.8800        84
    17.9000        60
    17.9200        62
    17.9400        68
    17.9600        50
    17.9800        68
    18.0000        66
    18.0200        48
    18.0400        62
    18.0600        48
    18.0800        62
    18.1000        54
    18.1200        46
    18.1400        54
    18.1600        64
    18.1800        54
    18.2000        54
    18.2200        60
    18.2400        58
    18.2600        64
    18.2800        46
    18.3000        60
    18.3200        70
    18.3400        54
    18.3600        42
    18.3800        52
    18.4000        70
    18.4200        66
    18.4400        66
    18.4600        56
    18.4800        60
    18.5000        54
    18.5200        64
    18.5400        46
    18.5600        60
    18.5800        48
    18.6000        60
    18.6200        62
    18.6400        44
    18.6600        48
    18.6800        54
    18.7000        52
    18.7200        56
    18.7400        54
    18.7600        68
    18.7800        58
    18.8000        62
    18.8200        52
    18.8400        58
    18.8600        64
    18.8800        42
    18.9000        64
    18.9200        52
    18.9400        54
    18.9600        62
    18.9800        46
    19.0000        46
    19.0200        50
    19.0400        58
    19.0600        60
    19.0800        56
    19.1000        62
    19.1200        56
    19.1400        44
    19.1600        42
    19.1800        62
    19.2000        70
    19.2200        50
    19.2400        38
    19.2600        72
    19.2800        62
    19.3000        60
    19.3200        48
    19.3400        48
    19.3600        70
    19.3800        60
    19.4000        42
    19.4200        42
    19.4400        62
    19.4600        54
    19.4800        66
    19.5000        64
    19.5200        66
    19.5400        64
    19.5600        36
    19.5800        52
    19.6000        64
    19.6200        50
    19.6400        60
    19.6600        62
    19.6800        62
    19.7000        42
    19.7200        48
    19.7400        56
    19.7600        54
    19.7800        84
    19.8000        64
    19.8200        46
    19.8400        46
    19.8600        58
    19.8800        58
    19.9000        58
    19.9200        62
    19.9400        62
    19.9600        48
    19.9800        58
    20.0000        50
    20.0200        58
    20.0400        50
    20.0600        68
    20.0800        66
    20.1000        58
    20.1200        66
    20.1400        60
    20.1600        62
    20.1800        62
    20.2000        52
    20.2200        64
    20.2400        68
    20.2600        64
    20.2800        66
    20.3000        70
    20.3200        58
    20.3400        68
    20.3600        72
    20.3800        88
    20.4000        92
    20.4200       106
    20.4400        96
    20.4600       112
    20.4800        96
    20.5000       100
    20.5200       124
    20.5400       124
    20.5600       130
    20.5800       154
    20.6000       190
    20.6200       218
    20.6400       248
    20.6600       328
    20.6800       398
    20.7000       560
    20.7200       684
    20.7400       754
    20.7600       698
    20.7800       584
    20.8000       514
    20.8200       376
    20.8400       232
    20.8600       172
    20.8800       148
    20.9000       146
    20.9200       136
    20.9400       136
    20.9600       156
    20.9800       148
    21.0000       160
    21.0200       160
    21.0400       166
    21.0600       154
    21.0800       202
    21.1000       156
    21.1200       158
    21.1400       166
    21.1600       164
    21.1800       144
    21.2000       138
    21.2200       128
    21.2400       122
    21.2600       102
    21.2800       104
    21.3000        98
    21.3200        80
    21.3400        82
    21.3600        96
    21.3800        88
    21.4000        74
    21.4200        92
    21.4400        68
    21.4600        72
    21.4800        90
    21.5000        74
    21.5200        74
    21.5400        60
    21.5600        90
    21.5800        62
    21.6000        70
    21.6200        48
    21.6400        66
    21.6600        62
    21.6800        58
    21.7000        72
    21.7200        66
    21.7400        52
    21.7600        68
    21.7800        62
    21.8000        44
    21.8200        52
    21.8400        70
    21.8600        66
    21.8800        60
    21.9000        48
    21.9200        40
    21.9400        40
    21.9600        54
    21.9800        56
    22.0000        66
    22.0200        62
    22.0400        52
    22.0600        48
    22.0800        48
    22.1000        52
    22.1200        54
    22.1400        56
    22.1600        38
    22.1800        56
    22.2000        38
    22.2200        64
    22.2400        48
    22.2600        42
    22.2800        46
    22.3000        56
    22.3200        42
    22.3400        50
    22.3600        54
    22.3800        44
    22.4000        50
    22.4200        50
    22.4400        56
    22.4600        52
    22.4800        34
    22.5000        46
    22.5200        46
    22.5400        52
    22.5600        60
    22.5800        54
    22.6000        44
    22.6200        52
    22.6400        52
    22.6600        54
    22.6800        46
    22.7000        44
    22.7200        50
    22.7400        52
    22.7600        30
    22.7800        40
    22.8000        64
    22.8200        48
    22.8400        34
    22.8600        56
    22.8800        44
    22.9000        56
    22.9200        48
    22.9400        48
    22.9600        50
    22.9800        44
    23.0000        50
    23.0200        36
    23.0400        48
    23.0600        44
    23.0800        52
    23.1000        48
    23.1200        50
    23.1400        46
    23.1600        56
    23.1800        52
    23.2000        56
    23.2200        46
    23.2400        34
    23.2600        40
    23.2800        38
    23.3000        60
    23.3200        44
    23.3400        54
    23.3600        44
    23.3800        44
    23.4000        50
    23.4200        48
    23.4400        46
    23.4600        40
    23.4800        56
    23.5000        40
    23.5200        38
    23.5400        44
    23.5600        40
    23.5800        44
    23.6000        40
    23.6200        50
    23.6400        54
    23.6600        48
    23.6800        64
    23.7000        54
    23.7200        52
    23.7400        52
    23.7600        44
    23.7800        54
    23.8000        54
    23.8200        40
    23.8400        74
    23.8600        66
    23.8800        64
    23.9000        52
    23.9200        54
    23.9400        60
    23.9600        54
    23.9800        52
    24.0000        36
    24.0200        52
    24.0400        50
    24.0600        50
    24.0800        44
    24.1000        44
    24.1200        62
    24.1400        42
    24.1600        34
    24.1800        48
    24.2000        60
    24.2200        52
    24.2400        46
    24.2600        52
    24.2800        56
    24.3000        44
    24.3200        54
    24.3400        52
    24.3600        56
    24.3800        42
    24.4000        44
    24.4200        30
    24.4400        52
    24.4600        46
    24.4800        38
    24.5000        48
    24.5200        54
    24.5400        44
    24.5600        56
    24.5800        44
    24.6000        42
    24.6200        50
    24.6400        40
    24.6600        48
    24.6800        46
    24.7000        40
    24.7200        48
    24.7400        46
    24.7600        46
    24.7800        38
    24.8000        54
    24.8200        38
    24.8400        50
    24.8600        46
    24.8800        54
    24.9000        46
    24.9200        48
    24.9400        52
    24.9600        48
    24.9800        54
    25.0000        52
    25.0200        58
    25.0400        56
    25.0600        48
    25.0800        52
    25.1000        60
    25.1200        48
    25.1400        52
    25.1600        38
    25.1800        32
    25.2000        54
    25.2200        50
    25.2400        48
    25.2600        44
    25.2800        48
    25.3000        60
    25.3200        62
    25.3400        50
    25.3600        62
    25.3800        74
    25.4000        46
    25.4200        46
    25.4400        62
    25.4600        60
    25.4800        54
    25.5000        66
    25.5200        58
    25.5400        44
    25.5600        60
    25.5800        58
    25.6000        50
    25.6200        46
    25.6400        44
    25.6600        46
    25.6800        52
    25.7000        46
    25.7200        66
    25.7400        54
    25.7600        54
    25.7800        58
    25.8000        50
    25.8200        62
    25.8400        52
    25.8600        68
    25.8800        52
    25.9000        52
    25.9200        70
    25.9400        66
    25.9600        68
    25.9800        58
    26.0000        88
    26.0200        62
    26.0400        82
    26.0600        82
    26.0800        66
    26.1000       100
    26.1200       126
    26.1400       122
    26.1600       126
    26.1800       136
    26.2000       176
    26.2200       176
    26.2400       180
    26.2600       224
    26.2800       266
    26.3000       266
    26.3200       330
    26.3400       338
    26.3600       468
    26.3800       564
    26.4000       658
    26.4200       876
    26.4400      1158
    26.4600      1762
    26.4800      2338
    26.5000      2830
    26.5200      3140
    26.5400      3292
    26.5600      2816
    26.5800      2272
    26.6000      1786
    26.6200      1364
    26.6400       892
    26.6600       550
    26.6800       362
    26.7000       226
    26.7200       140
    26.7400       108
    26.7600       128
    26.7800       102
    26.8000       104
    26.8200        92
    26.8400        92
    26.8600        76
    26.8800        68
    26.9000        56
    26.9200        66
    26.9400        50
    26.9600        68
    26.9800        42
    27.0000        54
    27.0200        46
    27.0400        54
    27.0600        48
    27.0800        48
    27.1000        48
    27.1200        44
    27.1400        50
    27.1600        42
    27.1800        48
    27.2000        46
    27.2200        48
    27.2400        48
    27.2600        44
    27.2800        34
    27.3000        40
    27.3200        44
    27.3400        46
    27.3600        34
    27.3800        38
    27.4000        36
    27.4200        50
    27.4400        32
    27.4600        42
    27.4800        36
    27.5000        48
    27.5200        40
    27.5400        42
    27.5600        36
    27.5800        26
    27.6000        52
    27.6200        38
    27.6400        32
    27.6600        26
    27.6800        44
    27.7000        32
    27.7200        44
    27.7400        32
    27.7600        40
    27.7800        32
    27.8000        40
    27.8200        48
    27.8400        38
    27.8600        44
    27.8800        48
    27.9000        30
    27.9200        48
    27.9400        44
    27.9600        58
    27.9800        28
    28.0000        42
    28.0200        36
    28.0400        40
    28.0600        40
    28.0800        34
    28.1000        42
    28.1200        30
    28.1400        34
    28.1600        24
    28.1800        54
    28.2000        40
    28.2200        46
    28.2400        34
    28.2600        30
    28.2800        46
    28.3000        46
    28.3200        44
    28.3400        44
    28.3600        42
    28.3800        38
    28.4000        32
    28.4200        44
    28.4400        40
    28.4600        24
    28.4800        38
    28.5000        46
    28.5200        48
    28.5400        36
    28.5600        46
    28.5800        36
    28.6000        32
    28.6200        48
    28.6400        40
    28.6600        32
    28.6800        48
    28.7000        38
    28.7200        36
    28.7400        32
    28.7600        38
    28.7800        46
    28.8000        36
    28.8200        32
    28.8400        32
    28.8600        40
    28.8800        34
    28.9000        28
    28.9200        40
    28.9400        44
    28.9600        42
    28.9800        46
    29.0000        34
    29.0200        42
    29.0400        44
    29.0600        28
    29.0800        40
    29.1000        38
    29.1200        32
    29.1400        34
    29.1600        42
    29.1800        44
    29.2000        34
    29.2200        36
    29.2400        38
    29.2600        34
    29.2800        38
    29.3000        40
    29.3200        40
    29.3400        36
    29.3600        28
    29.3800        32
    29.4000        36
    29.4200        36
    29.4400        34
    29.4600        26
    29.4800        30
    29.5000        34
    29.5200        32
    29.5400        28
    29.5600        34
    29.5800        54
    29.6000        44
    29.6200        38
    29.6400        42
    29.6600        32
    29.6800        40
    29.7000        30
    29.7200        32
    29.7400        50
    29.7600        44
    29.7800        28
    29.8000        26
    29.8200        46
    29.8400        36
    29.8600        42
    29.8800        38
    29.9000        38
    29.9200        40
    29.9400        48
    29.9600        42
    29.9800        38
    30.0000        28
    30.0200        30
    30.0400        24
    30.0600        20
    30.0800        34
    30.1000        34
    30.1200        34
    30.1400        34
    30.1600        42
    30.1800        40
    30.2000        30
    30.2200        24
    30.2400        40
    30.2600        42
    30.2800        48
    30.3000        40
    30.3200        26
    30.3400        30
    30.3600        38
    30.3800        34
    30.4000        26
    30.4200        40
    30.4400        34
    30.4600        36
    30.4800        28
    30.5000        32
    30.5200        36
    30.5400        30
    30.5600        34
    30.5800        36
    30.6000        32
    30.6200        42
    30.6400        42
    30.6600        24
    30.6800        36
    30.7000        40
    30.7200        44
    30.7400        36
    30.7600        40
    30.7800        48
    30.8000        28
    30.8200        36
    30.8400        36
    30.8600        34
    30.8800        38
    30.9000        40
    30.9200        44
    30.9400        42
    30.9600        22
    30.9800        30
    31.0000        42
    31.0200        46
    31.0400        32
    31.0600        36
    31.0800        36
    31.1000        34
    31.1200        46
    31.1400        36
    31.1600        42
    31.1800        46
    31.2000        38
    31.2200        28
    31.2400        40
    31.2600        32
    31.2800        28
    31.3000        36
    31.3200        38
    31.3400        32
    31.3600        32
    31.3800        30
    31.4000        28
    31.4200        48
    31.4400        30
    31.4600        38
    31.4800        38
    31.5000        38
    31.5200        36
    31.5400        42
    31.5600        34
    31.5800        36
    31.6000        54
    31.6200        50
    31.6400        40
    31.6600        38
    31.6800        34
    31.7000        30
    31.7200        38
    31.7400        38
    31.7600        34
    31.7800        46
    31.8000        40
    31.8200        38
    31.8400        42
    31.8600        44
    31.8800        48
    31.9000        32
    31.9200        38
    31.9400        48
    31.9600        32
    31.9800        42
    32.0000        44
    32.0200        44
    32.0400        38
    32.0600        46
    32.0800        38
    32.1000        48
    32.1200        48
    32.1400        42
    32.1600        52
    32.1800        40
    32.2000        46
    32.2200        50
    32.2400        50
    32.2600        46
    32.2800        46
    32.3000        40
    32.3200        44
    32.3400        40
    32.3600        52
    32.3800        36
    32.4000        48
    32.4200        50
    32.4400        54
    32.4600        56
    32.4800        52
    32.5000        48
    32.5200        58
    32.5400        50
    32.5600        64
    32.5800        54
    32.6000        70
    32.6200        72
    32.6400        74
    32.6600        74
    32.6800        54
    32.7000        74
    32.7200        88
    32.7400        68
    32.7600        62
    32.7800        82
    32.8000        84
    32.8200        70
    32.8400        98
    32.8600        94
    32.8800        96
    32.9000        86
    32.9200        88
    32.9400       104
    32.9600       106
    32.9800       118
    33.0000       104
    33.0200       114
    33.0400       110
    33.0600       114
    33.0800       140
    33.1000       162
    33.1200       120
    33.1400       112
    33.1600       132
    33.1800       130
    33.2000       108
    33.2200       114
    33.2400       102
    33.2600       114
    33.2800       104
    33.3000        78
    33.3200        82
    33.3400        58
    33.3600        74
    33.3800        72
    33.4000        56
    33.4200        56
    33.4400        58
    33.4600        72
    33.4800        62
    33.5000        56
    33.5200        68
    33.5400        52
    33.5600        60
    33.5800        48
    33.6000        58
    33.6200        40
    33.6400        44
    33.6600        54
    33.6800        46
    33.7000        56
    33.7200        46
    33.7400        60
    33.7600        50
    33.7800        44
    33.8000        44
    33.8200        60
    33.8400        56
    33.8600        46
    33.8800        62
    33.9000        46
    33.9200        52
    33.9400        46
    33.9600        52
    33.9800        42
    34.0000        40
    34.0200        38
    34.0400        44
    34.0600        38
    34.0800        40
    34.1000        54
    34.1200        48
    34.1400        36
    34.1600        50
    34.1800        42
    34.2000        54
    34.2200        36
    34.2400        42
    34.2600        46
    34.2800        48
    34.3000        54
    34.3200        52
    34.3400        60
    34.3600        60
    34.3800        66
    34.4000        62
    34.4200        64
    34.4400        54
    34.4600        76
    34.4800        76
    34.5000        60
    34.5200        76
    34.5400        80
    34.5600        78
    34.5800        84
    34.6000        94
    34.6200        76
    34.6400        74
    34.6600        70
    34.6800        62
    34.7000        82
    34.7200        76
    34.7400        78
    34.7600        74
    34.7800        54
    34.8000        72
    34.8200        68
    34.8400        58
    34.8600        62
    34.8800        38
    34.9000        48
    34.9200        54
    34.9400        50
    34.9600        54
    34.9800        54
    35.0000        64
    35.0200        50
    35.0400        50
    35.0600        56
    35.0800        52
    35.1000        44
    35.1200        54
    35.1400        50
    35.1600        60
    35.1800        36
    35.2000        78
    35.2200        56
    35.2400        60
    35.2600        70
    35.2800        56
    35.3000        56
    35.3200        70
    35.3400        44
    35.3600        72
    35.3800        68
    35.4000        50
    35.4200        82
    35.4400        84
    35.4600        72
    35.4800        90
    35.5000       108
    35.5200        82
    35.5400        88
    35.5600        90
    35.5800       104
    35.6000        76
    35.6200        72
    35.6400        82
    35.6600        76
    35.6800        86
    35.7000        74
    35.7200        84
    35.7400        88
    35.7600        94
    35.7800        60
    35.8000        74
    35.8200        88
    35.8400        74
    35.8600        66
    35.8800        74
    35.9000        74
    35.9200        80
    35.9400        86
    35.9600        74
    35.9800        86
    36.0000        86
    36.0200        64
    36.0400        80
    36.0600        90
    36.0800        76
    36.1000        92
    36.1200        82
    36.1400        90
    36.1600       104
    36.1800        98
    36.2000        90
    36.2200       102
    36.2400        96
    36.2600       120
    36.2800       150
    36.3000       170
    36.3200       158
    36.3400       194
    36.3600       218
    36.3800       234
    36.4000       286
    36.4200       322
    36.4400       376
    36.4600       336
    36.4800       372
    36.5000       318
    36.5200       270
    36.5400       282
    36.5600       250
    36.5800       234
    36.6000       170
    36.6200       160
    36.6400       166
    36.6600       142
    36.6800       126
    36.7000       108
    36.7200       118
    36.7400       120
    36.7600       106
    36.7800        84
    36.8000        78
    36.8200        76
    36.8400        82
    36.8600        76
    36.8800        60
    36.9000        62
    36.9200        72
    36.9400        66
    36.9600        46
    36.9800        46
    37.0000        48
    37.0200        48
    37.0400       551
    37.0600        44
    37.0800        48
    37.1000        48
    37.1200        42
    37.1400        42
    37.1600        54
    37.1800        44
    37.2000        54
    37.2200        38
    37.2400        44
    37.2600        34
    37.2800        54
    37.3000        28
    37.3200        44
    37.3400        40
    37.3600        38
    37.3800        52
    37.4000        40
    37.4200        42
    37.4400        40
    37.4600        40
    37.4800        40
    37.5000        40
    37.5200        28
    37.5400        34
    37.5600        36
    37.5800        46
    37.6000        36
    37.6200        38
    37.6400        36
    37.6600        26
    37.6800        44
    37.7000        38
    37.7200        28
    37.7400        42
    37.7600        46
    37.7800        42
    37.8000        40
    37.8200        46
    37.8400        32
    37.8600        32
    37.8800        28
    37.9000        46
    37.9200        36
    37.9400        32
    37.9600        44
    37.9800        36
    38.0000        32
    38.0200        38
    38.0400        42
    38.0600        36
    38.0800        38
    38.1000        48
    38.1200        40
    38.1400        32
    38.1600        34
    38.1800        32
    38.2000        40
    38.2200        34
    38.2400        28
    38.2600        36
    38.2800        36
    38.3000        32
    38.3200        32
    38.3400        36
    38.3600        36
    38.3800        40
    38.4000        34
    38.4200        42
    38.4400        32
    38.4600        38
    38.4800        32
    38.5000        34
    38.5200        38
    38.5400        46
    38.5600        40
    38.5800        34
    38.6000        40
    38.6200        38
    38.6400        36
    38.6600        30
    38.6800        50
    38.7000        34
    38.7200        30
    38.7400        40
    38.7600        28
    38.7800        34
    38.8000        38
    38.8200        30
    38.8400        34
    38.8600        34
    38.8800        34
    38.9000        40
    38.9200        38
    38.9400        34
    38.9600        32
    38.9800        38
    39.0000        36
    39.0200        34
    39.0400        46
    39.0600        28
    39.0800        46
    39.1000        40
    39.1200        42
    39.1400        50
    39.1600        56
    39.1800        54
    39.2000        60
    39.2200        74
    39.2400        98
    39.2600       120
    39.2800       142
    39.3000       188
    39.3200       194
    39.3400       192
    39.3600       186
    39.3800       170
    39.4000       168
    39.4200       136
    39.4400       124
    39.4600       104
    39.4800       108
    39.5000        60
    39.5200        74
    39.5400        58
    39.5600        52
    39.5800        54
    39.6000        48
    39.6200        46
    39.6400        50
    39.6600        44
    39.6800        64
    39.7000        48
    39.7200        46
    39.7400        62
    39.7600        54
    39.7800        58
    39.8000        70
    39.8200        58
    39.8400        78
    39.8600        76
    39.8800        70
    39.9000        62
    39.9200        62
    39.9400        62
    39.9600        60
    39.9800        74
    40.0000        48
    40.0200        78
    40.0400        80
    40.0600        70
    40.0800        72
    40.1000        80
    40.1200        92
    40.1400       120
    40.1600       112
    40.1800       120
    40.2000       132
    40.2200       102
    40.2400       110
    40.2600        90
    40.2800        70
    40.3000        86
    40.3200        54
    40.3400        60
    40.3600        46
    40.3800        54
    40.4000        56
    40.4200        48
    40.4400        62
    40.4600        48
    40.4800        58
    40.5000        42
    40.5200        46
    40.5400        42
    40.5600        46
    40.5800        46
    40.6000        40
    40.6200        56
    40.6400        52
    40.6600        46
    40.6800        68
    40.7000        50
    40.7200        62
    40.7400        36
    40.7600        58
    40.7800        64
    40.8000        48
    40.8200        52
    40.8400        56
    40.8600        50
    40.8800        60
    40.9000        56
    40.9200        70
    40.9400        54
    40.9600        60
    40.9800        58
    41.0000        76
    41.0200        62
    41.0400        78
    41.0600        72
    41.0800        70
    41.1000        64
    41.1200        62
    41.1400        56
    41.1600        56
    41.1800        50
    41.2000        54
    41.2200        54
    41.2400        52
    41.2600        50
    41.2800        42
    41.3000        44
    41.3200        48
    41.3400        36
    41.3600        36
    41.3800        50
    41.4000        50
    41.4200        44
    41.4400        30
    41.4600        30
    41.4800        34
    41.5000        40
    41.5200        42
    41.5400        44
    41.5600        34
    41.5800        36
    41.6000        32
    41.6200        24
    41.6400        44
    41.6600        34
    41.6800        52
    41.7000        26
    41.7200        34
    41.7400        34
    41.7600        30
    41.7800        32
    41.8000        38
    41.8200        32
    41.8400        26
    41.8600        30
    41.8800        32
    41.9000        34
    41.9200        30
    41.9400        34
    41.9600        30
    41.9800        24
    42.0000        34
    42.0200        32
    42.0400        38
    42.0600        38
    42.0800        44
    42.1000        44
    42.1200        46
    42.1400        68
    42.1600        38
    42.1800        64
    42.2000        84
    42.2200        88
    42.2400       110
    42.2600       138
    42.2800       190
    42.3000       198
    42.3200       214
    42.3400       184
    42.3600       166
    42.3800       140
    42.4000       120
    42.4200       138
    42.4400       114
    42.4600        88
    42.4800        76
    42.5000        58
    42.5200        46
    42.5400        44
    42.5600        30
    42.5800        42
    42.6000        38
    42.6200        32
    42.6400        28
    42.6600        36
    42.6800        28
    42.7000        32
    42.7200        38
    42.7400        36
    42.7600        32
    42.7800        30
    42.8000        24
    42.8200        24
    42.8400        24
    42.8600        24
    42.8800        26
    42.9000        44
    42.9200        36
    42.9400        26
    42.9600        30
    42.9800        30
    43.0000        32
    43.0200        38
    43.0400        36
    43.0600        28
    43.0800        28
    43.1000        24
    43.1200        36
    43.1400        20
    43.1600        44
    43.1800        38
    43.2000        34
    43.2200        20
    43.2400        30
    43.2600        30
    43.2800        40
    43.3000        38
    43.3200        34
    43.3400        30
    43.3600        30
    43.3800        36
    43.4000        36
    43.4200        46
    43.4400        30
    43.4600        36
    43.4800        28
    43.5000        40
    43.5200        36
    43.5400        22
    43.5600        22
    43.5800        36
    43.6000        28
    43.6200        30
    43.6400        32
    43.6600        32
    43.6800        30
    43.7000        28
    43.7200        38
    43.7400        26
    43.7600        36
    43.7800        36
    43.8000        34
    43.8200        34
    43.8400        30
    43.8600        22
    43.8800        26
    43.9000        30
    43.9200        18
    43.9400        24
    43.9600        28
    43.9800        34
    44.0000        30
    44.0200        30
    44.0400        32
    44.0600        26
    44.0800        20
    44.1000        24
    44.1200        28
    44.1400        32
    44.1600        30
    44.1800        40
    44.2000        36
    44.2200        36
    44.2400        30
    44.2600        36
    44.2800        28
    44.3000        34
    44.3200        28
    44.3400        36
    44.3600        30
    44.3800        20
    44.4000        26
    44.4200        32
    44.4400        34
    44.4600        36
    44.4800        26
    44.5000        30
    44.5200        22
    44.5400        28
    44.5600        40
    44.5800        40
    44.6000        30
    44.6200        22
    44.6400        34
    44.6600        30
    44.6800        28
    44.7000        24
    44.7200        34
    44.7400        26
    44.7600        30
    44.7800        30
    44.8000        30
    44.8200        38
    44.8400        36
    44.8600        36
    44.8800        32
    44.9000        38
    44.9200        36
    44.9400        48
    44.9600        34
    44.9800        38
    45.0000        38
    45.0200        32
    45.0400        36
    45.0600        40
    45.0800        42
    45.1000        38
    45.1200        34
    45.1400        44
    45.1600        26
    45.1800        26
    45.2000        32
    45.2200        28
    45.2400        34
    45.2600        32
    45.2800        22
    45.3000        38
    45.3200        42
    45.3400        34
    45.3600        26
    45.3800        40
    45.4000        28
    45.4200        34
    45.4400        34
    45.4600        28
    45.4800        36
    45.5000        46
    45.5200        50
    45.5400        34
    45.5600        64
    45.5800        54
    45.6000        76
    45.6200        92
    45.6400        94
    45.6600       138
    45.6800       144
    45.7000       138
    45.7200       154
    45.7400       116
    45.7600       106
    45.7800       110
    45.8000        94
    45.8200        92
    45.8400        96
    45.8600        62
    45.8800        38
    45.9000        44
    45.9200        42
    45.9400        50
    45.9600        30
    45.9800        36
    46.0000        24
    46.0200        30
    46.0400        24
    46.0600        24
    46.0800        22
    46.1000        28
    46.1200        34
    46.1400        22
    46.1600        38
    46.1800        26
    46.2000        26
    46.2200        26
    46.2400        28
    46.2600        30
    46.2800        34
    46.3000        36
    46.3200        36
    46.3400        30
    46.3600        30
    46.3800        36
    46.4000        26
    46.4200        20
    46.4400        30
    46.4600        26
    46.4800        30
    46.5000        28
    46.5200        24
    46.5400        32
    46.5600        34
    46.5800        20
    46.6000        38
    46.6200        36
    46.6400        36
    46.6600        26
    46.6800        28
    46.7000        38
    46.7200        30
    46.7400        26
    46.7600        38
    46.7800        26
    46.8000        28
    46.8200        28
    46.8400        34
    46.8600        34
    46.8800        28
    46.9000        34
    46.9200        36
    46.9400        30
    46.9600        40
    46.9800        34
    47.0000        28
    47.0200        28
    47.0400        34
    47.0600        46
    47.0800        42
    47.1000        46
    47.1200        44
    47.1400        38
    47.1600        28
    47.1800        48
    47.2000        44
    47.2200        38
    47.2400        44
    47.2600        34
    47.2800        36
    47.3000        30
    47.3200        32
    47.3400        36
    47.3600        46
    47.3800        34
    47.4000        36
    47.4200        30
    47.4400        22
    47.4600        22
    47.4800        26
    47.5000        32
    47.5200        34
    47.5400        22
    47.5600        36
    47.5800        46
    47.6000        30
    47.6200        18
    47.6400        28
    47.6600        30
    47.6800        26
    47.7000        38
    47.7200        36
    47.7400        24
    47.7600        28
    47.7800        34
    47.8000        22
    47.8200        44
    47.8400        16
    47.8600        40
    47.8800        30
    47.9000        28
    47.9200        38
    47.9400        38
    47.9600        44
    47.9800        28
    48.0000        32
    48.0200        38
    48.0400        34
    48.0600        26
    48.0800        30
    48.1000        30
    48.1200        32
    48.1400        18
    48.1600        26
    48.1800        18
    48.2000        36
    48.2200        32
    48.2400        30
    48.2600        28
    48.2800        28
    48.3000        16
    48.3200        26
    48.3400        28
    48.3600        30
    48.3800        26
    48.4000        28
    48.4200        34
    48.4400        34
    48.4600        30
    48.4800        38
    48.5000        34
    48.5200        42
    48.5400        24
    48.5600        26
    48.5800        36
    48.6000        34
    48.6200        28
    48.6400        32
    48.6600        28
    48.6800        36
    48.7000        32
    48.7200        32
    48.7400        30
    48.7600        34
    48.7800        34
    48.8000        36
    48.8200        32
    48.8400        32
    48.8600        42
    48.8800        42
    48.9000        28
    48.9200        16
    48.9400        38
    48.9600        44
    48.9800        48
    49.0000        36
    49.0200        46
    49.0400        28
    49.0600        40
    49.0800        34
    49.1000        42
    49.1200        50
    49.1400        38
    49.1600        34
    49.1800        28
    49.2000        34
    49.2200        62
    49.2400        32
    49.2600        48
    49.2800        34
    49.3000        40
    49.3200        46
    49.3400        36
    49.3600        56
    49.3800        42
    49.4000        42
    49.4200        42
    49.4400        34
    49.4600        44
    49.4800        36
    49.5000        52
    49.5200        48
    49.5400        30
    49.5600        32
    49.5800        36
    49.6000        36
    49.6200        46
    49.6400        38
    49.6600        38
    49.6800        38
    49.7000        54
    49.7200        46
    49.7400        54
    49.7600        50
    49.7800        66
    49.8000        48
    49.8200        64
    49.8400        68
    49.8600        52
    49.8800        94
    49.9000       116
    49.9200       156
    49.9400       234
    49.9600       304
    49.9800       410
    50.0000       414
    50.0200       460
    50.0400       432
    50.0600       390
    50.0800       330
    50.1000       282
    50.1200       274
    50.1400       258
    50.1600       240
    50.1800       196
    50.2000       164
    50.2200       118
    50.2400        70
    50.2600        68
    50.2800        54
    50.3000        54
    50.3200        60
    50.3400        50
    50.3600        50
    50.3800        44
    50.4000        54
    50.4200        50
    50.4400        52
    50.4600        38
    50.4800        48
    50.5000        50
    50.5200        60
    50.5400        56
    50.5600        34
    50.5800        58
    50.6000        54
    50.6200        56
    50.6400        30
    50.6600        56
    50.6800        44
    50.7000        48
    50.7200        42
    50.7400        40
    50.7600        32
    50.7800        28
    50.8000        34
    50.8200        40
    50.8400        44
    50.8600        28
    50.8800        30
    50.9000        28
    50.9200        32
    50.9400        42
    50.9600        32
    50.9800        32
    51.0000        34
    51.0200        28
    51.0400        32
    51.0600        30
    51.0800        42
    51.1000        38
    51.1200        54
    51.1400        42
    51.1600        36
    51.1800        26
    51.2000        32
    51.2200        34
    51.2400        50
    51.2600        32
    51.2800        40
    51.3000        40
    51.3200        40
    51.3400        42
    51.3600        40
    51.3800        38
    51.4000        40
    51.4200        34
    51.4400        38
    51.4600        28
    51.4800        38
    51.5000        34
    51.5200        24
    51.5400        36
    51.5600        30
    51.5800        28
    51.6000        26
    51.6200        44
    51.6400        34
    51.6600        30
    51.6800        26
    51.7000        32
    51.7200        30
    51.7400        38
    51.7600        24
    51.7800        24
    51.8000        24
    51.8200        26
    51.8400        24
    51.8600        32
    51.8800        42
    51.9000        36
    51.9200        26
    51.9400        34
    51.9600        28
    51.9800        34
    52.0000        42
    52.0200        36
    52.0400        46
    52.0600        38
    52.0800        38
    52.1000        34
    52.1200        42
    52.1400        36
    52.1600        34
    52.1800        26
    52.2000        40
    52.2200        36
    52.2400        36
    52.2600        36
    52.2800        42
    52.3000        32
    52.3200        40
    52.3400        34
    52.3600        38
    52.3800        40
    52.4000        26
    52.4200        42
    52.4400        34
    52.4600        42
    52.4800        38
    52.5000        38
    52.5200        26
    52.5400        42
    52.5600        44
    52.5800        52
    52.6000        48
    52.6200        40
    52.6400        36
    52.6600        44
    52.6800        50
    52.7000        42
    52.7200        60
    52.7400        52
    52.7600        46
    52.7800        60
    52.8000        58
    52.8200        58
    52.8400        72
    52.8600        50
    52.8800        52
    52.9000        70
    52.9200        68
    52.9400        72
    52.9600        68
    52.9800        56
    53.0000        88
    53.0200        90
    53.0400        78
    53.0600        82
    53.0800        84
    53.1000        74
    53.1200        70
    53.1400        86
    53.1600        86
    53.1800        80
    53.2000        72
    53.2200        90
    53.2400        84
    53.2600        74
    53.2800        58
    53.3000        68
    53.3200        76
    53.3400        62
    53.3600        74
    53.3800        56
    53.4000        82
    53.4200        58
    53.4400        68
    53.4600        52
    53.4800        66
    53.5000        60
    53.5200        48
    53.5400        56
    53.5600        54
    53.5800        52
    53.6000        48
    53.6200        42
    53.6400        50
    53.6600        54
    53.6800        52
    53.7000        62
    53.7200        62
    53.7400        62
    53.7600        68
    53.7800        64
    53.8000        60
    53.8200        48
    53.8400        56
    53.8600        54
    53.8800        46
    53.9000        56
    53.9200        50
    53.9400        56
    53.9600        68
    53.9800        62
    54.0000        60
    54.0200        62
    54.0400        52
    54.0600        60
    54.0800        54
    54.1000        46
    54.1200        58
    54.1400        58
    54.1600        50
    54.1800        56
    54.2000        66
    54.2200        62
    54.2400        40
    54.2600        50
    54.2800        50
    54.3000        56
    54.3200        60
    54.3400        56
    54.3600        54
    54.3800        56
    54.4000        54
    54.4200        54
    54.4400        48
    54.4600        46
    54.4800        56
    54.5000        40
    54.5200        48
    54.5400        54
    54.5600        56
    54.5800        64
    54.6000        56
    54.6200        60
    54.6400        78
    54.6600        96
    54.6800       132
    54.7000       188
    54.7200       192
    54.7400       216
    54.7600       214
    54.7800       208
    54.8000       152
    54.8200       140
    54.8400       142
    54.8600       142
    54.8800       138
    54.9000       132
    54.9200       124
    54.9400        96
    54.9600        92
    54.9800        62
    55.0000        60
    55.0200        42
    55.0400        52
    55.0600        52
    55.0800        46
    55.1000        46
    55.1200        52
    55.1400        74
    55.1600        88
    55.1800        92
    55.2000        64
    55.2200        74
    55.2400        66
    55.2600        58
    55.2800        56
    55.3000        62
    55.3200        58
    55.3400        40
    55.3600        64
    55.3800        50
    55.4000        40
    55.4200        30
    55.4400        34
    55.4600        40
    55.4800        34
    55.5000        40
    55.5200        28
    55.5400        30
    55.5600        40
    55.5800        32
    55.6000        34
    55.6200        32
    55.6400        34
    55.6600        22
    55.6800        38
    55.7000        22
    55.7200        42
    55.7400        26
    55.7600        40
    55.7800        32
    55.8000        34
    55.8200        40
    55.8400        34
    55.8600        44
    55.8800        32
    55.9000        26
    55.9200        32
    55.9400        38
    55.9600        34
    55.9800        22
    56.0000        24
    56.0200        48
    56.0400        36
    56.0600        40
    56.0800        42
    56.1000        28
    56.1200        30
    56.1400        34
    56.1600        26
    56.1800        34
    56.2000        42
    56.2200        40
    56.2400        42
    56.2600        26
    56.2800        28
    56.3000        34
    56.3200        22
    56.3400        34
    56.3600        28
    56.3800        24
    56.4000        34
    56.4200        30
    56.4400        30
    56.4600        30
    56.4800        30
    56.5000        28
    56.5200        32
    56.5400        30
    56.5600        30
    56.5800        34
    56.6000        42
    56.6200        32
    56.6400        30
    56.6600        36
    56.6800        28
    56.7000        30
    56.7200        38
    56.7400        28
    56.7600        28
    56.7800        30
    56.8000        32
    56.8200        42
    56.8400        42
    56.8600        48
    56.8800        24
    56.9000        44
    56.9200        36
    56.9400        42
    56.9600        30
    56.9800        50
    57.0000        34
    57.0200        40
    57.0400        42
    57.0600        44
    57.0800        50
    57.1000        44
    57.1200        40
    57.1400        44
    57.1600        48
    57.1800        44
    57.2000        38
    57.2200        46
    57.2400        46
    57.2600        52
    57.2800        40
    57.3000        56
    57.3200        44
    57.3400        46
    57.3600        54
    57.3800        48
    57.4000        40
    57.4200        48
    57.4400        38
    57.4600        48
    57.4800        46
    57.5000        34
    57.5200        32
    57.5400        40
    57.5600        44
    57.5800        40
    57.6000        32
    57.6200        32
    57.6400        30
    57.6600        32
    57.6800        50
    57.7000        46
    57.7200        32
    57.7400        36
    57.7600        34
    57.7800        52
    57.8000        42
    57.8200        32
    57.8400        34
    57.8600        32
    57.8800        32
    57.9000        30
    57.9200        30
    57.9400        22
    57.9600        18
    57.9800        40
    58.0000        32
    58.0200        26
    58.0400        40
    58.0600        42
    58.0800        32
    58.1000        42
    58.1200        42
    58.1400        30
    58.1600        32
    58.1800        32
    58.2000        32
    58.2200        46
    58.2400        28
    58.2600        22
    58.2800        32
    58.3000        38
    58.3200        30
    58.3400        40
    58.3600        32
    58.3800        36
    58.4000        30
    58.4200        46
    58.4400        38
    58.4600        44
    58.4800        34
    58.5000        44
    58.5200        48
    58.5400        44
    58.5600        48
    58.5800        52
    58.6000        48
    58.6200        42
    58.6400        44
    58.6600        50
    58.6800        60
    58.7000        58
    58.7200        66
    58.7400        56
    58.7600        80
    58.7800        60
    58.8000        60
    58.8200        54
    58.8400        66
    58.8600        56
    58.8800        76
    58.9000        80
    58.9200        66
    58.9400        58
    58.9600        66
    58.9800        56
    59.0000        68
    59.0200        56
    59.0400        82
    59.0600        62
    59.0800        38
    59.1000        68
    59.1200        52
    59.1400        36
    59.1600        44
    59.1800        54
    59.2000        34
    59.2200        50
    59.2400        44
    59.2600        42
    59.2800        40
    59.3000        34
    59.3200        46
    59.3400        46
    59.3600        34
    59.3800        44
    59.4000        38
    59.4200        34
    59.4400        38
    59.4600        36
    59.4800        32
    59.5000        38
    59.5200        62
    59.5400        42
    59.5600        56
    59.5800        48
    59.6000        44
    59.6200        36
    59.6400        58
    59.6600        54
    59.6800        60
    59.7000        74
    59.7200        92
    59.7400       120
    59.7600       164
    59.7800       208
    59.8000       252
    59.8200       360
    59.8400       332
    59.8600       296
    59.8800       280
    59.9000       214
    59.9200       178
    59.9400       158
    59.9600       168
    59.9800       180
    60.0000       196
    60.0200       204
    60.0400       160
    60.0600       110
    60.0800        76
    60.1000        72
    60.1200        40
    60.1400        50
    60.1600        36
    60.1800        38
    60.2000        46
    60.2200        34
    60.2400        30
    60.2600        46
    60.2800        34
    60.3000        34
    60.3200        36
    60.3400        30
    60.3600        40
    60.3800        28
    60.4000        24
    60.4200        38
    60.4400        34
    60.4600        36
    60.4800        30
    60.5000        34
    60.5200        40
    60.5400        24
    60.5600        34
    60.5800        34
    60.6000        28
    60.6200        32
    60.6400        32
    60.6600        40
    60.6800        28
    60.7000        42
    60.7200        44
    60.7400        44
    60.7600        40
    60.7800        22
    60.8000        36
    60.8200        34
    60.8400        40
    60.8600        32
    60.8800        42
    60.9000        44
    60.9200        42
    60.9400        32
    60.9600        34
    60.9800        54
    61.0000        46
    61.0200        38
    61.0400        50
    61.0600        58
    61.0800        52
    61.1000        54
    61.1200        50
    61.1400        44
    61.1600        66
    61.1800        66
    61.2000        44
    61.2200        48
    61.2400        48
    61.2600        62
    61.2800        62
    61.3000        76
    61.3200        46
    61.3400        78
    61.3600        64
    61.3800        44
    61.4000        50
    61.4200        54
    61.4400        40
    61.4600        50
    61.4800        46
    61.5000        50
    61.5200        38
    61.5400        42
    61.5600        40
    61.5800        44
    61.6000        56
    61.6200        44
    61.6400        30
    61.6600        52
    61.6800        42
    61.7000        50
    61.7200        36
    61.7400        42
    61.7600        36
    61.7800        30
    61.8000        48
    61.8200        40
    61.8400        38
    61.8600        42
    61.8800        46
    61.9000        26
    61.9200        40
    61.9400        46
    61.9600        42
    61.9800        36
    62.0000        34
    62.0200        36
    62.0400        54
    62.0600        44
    62.0800        46
    62.1000        30
    62.1200        44
    62.1400        22
    62.1600        38
    62.1800        42
    62.2000        50
    62.2200        56
    62.2400        36
    62.2600        30
    62.2800        40
    62.3000        42
    62.3200        42
    62.3400        46
    62.3600        38
    62.3800        40
    62.4000        42
    62.4200        40
    62.4400        38
    62.4600        42
    62.4800        52
    62.5000        38
    62.5200        28
    62.5400        50
    62.5600        46
    62.5800        32
    62.6000        48
    62.6200        36
    62.6400        36
    62.6600        36
    62.6800        34
    62.7000        36
    62.7200        38
    62.7400        40
    62.7600        36
    62.7800        34
    62.8000        28
    62.8200        34
    62.8400        50
    62.8600        42
    62.8800        36
    62.9000        28
    62.9200        48
    62.9400        40
    62.9600        42
    62.9800        52
    63.0000        40
    63.0200        36
    63.0400        38
    63.0600        40
    63.0800        54
    63.1000        36
    63.1200        32
    63.1400        52
    63.1600        38
    63.1800        42
    63.2000        50
    63.2200        34
    63.2400        28
    63.2600        28
    63.2800        48
    63.3000        36
    63.3200        50
    63.3400        40
    63.3600        42
    63.3800        36
    63.4000        36
    63.4200        32
    63.4400        40
    63.4600        38
    63.4800        44
    63.5000        48
    63.5200        42
    63.5400        40
    63.5600        34
    63.5800        38
    63.6000        46
    63.6200        44
    63.6400        50
    63.6600        66
    63.6800        44
    63.7000        60
    63.7200        48
    63.7400        66
    63.7600        74
    63.7800        72
    63.8000        76
    63.8200        84
    63.8400        82
    63.8600       122
    63.8800       110
    63.9000       120
    63.9200       140
    63.9400       104
    63.9600        96
    63.9800        98
    64.0000        98
    64.0200        82
    64.0400        90
    64.0600        80
    64.0800        76
    64.1000        64
    64.1200        88
    64.1400        76
    64.1600        58
    64.1800        60
    64.2000        48
    64.2200        52
    64.2400        52
    64.2600        48
    64.2800        30
    64.3000        34
    64.3200        42
    64.3400        40
    64.3600        38
    64.3800        36
    64.4000        42
    64.4200        34
    64.4400        26
    64.4600        34
    64.4800        40
    64.5000        36
    64.5200        28
    64.5400        26
    64.5600        46
    64.5800        32
    64.6000        36
    64.6200        26
    64.6400        28
    64.6600        28
    64.6800        20
    64.7000        24
    64.7200        34
    64.7400        36
    64.7600        30
    64.7800        36
    64.8000        32
    64.8200        42
    64.8400        30
    64.8600        46
    64.8800        32
    64.9000        30
    64.9200        26
    64.9400        32
    64.9600        46
    64.9800        30
    65.0000        26
