/////////////////////////////////////////////////////////////////////////////////
/// Profile Data Ascii Dump (XRD)                                             ///
/////////////////////////////////////////////////////////////////////////////////

  Group     : Swayze
  Data      : WS479
  File Name : WS479.RAW

# Profile Datafile
          comment             = Almandine 
          date & time         = 08-03-14 06:55:54 

# Measurement Condition
    X-ray tube
          target              = Cu 
          voltage             = 40.0 (kV)
          current             = 30.0 (mA)
    Slits
          divergence slit     = 2.00000 (deg) 
          scatter slit        = 2.00000 (deg) 
          receiving slit      = 0.15000 (mm)  
    Scanning
          drive axis          = Theta-2Theta 
          scan range          =    4.000 -   65.000 
          scan mode           = Continuous Scan 
          scan speed          =   2.0000 (deg/min) 
          sampling pitch      =   0.0200 (deg) 
          preset time         =   0.60 (sec) 

# Data      [ Total No. = 3051 ]
  <2Theta>   <   I   >
     4.0000       210
     4.0200       210
     4.0400       176
     4.0600       156
     4.0800       192
     4.1000       188
     4.1200       186
     4.1400       202
     4.1600       170
     4.1800       198
     4.2000       190
     4.2200       200
     4.2400       150
     4.2600       196
     4.2800       180
     4.3000       160
     4.3200       178
     4.3400       168
     4.3600       178
     4.3800       188
     4.4000       214
     4.4200       184
     4.4400       200
     4.4600       178
     4.4800       162
     4.5000       184
     4.5200       164
     4.5400       172
     4.5600       158
     4.5800       176
     4.6000       192
     4.6200       170
     4.6400       170
     4.6600       166
     4.6800       178
     4.7000       176
     4.7200       178
     4.7400       184
     4.7600       164
     4.7800       172
     4.8000       174
     4.8200       154
     4.8400       158
     4.8600       156
     4.8800       150
     4.9000       146
     4.9200       188
     4.9400       140
     4.9600       158
     4.9800       194
     5.0000       142
     5.0200       158
     5.0400       170
     5.0600       184
     5.0800       140
     5.1000       164
     5.1200       158
     5.1400       124
     5.1600       160
     5.1800       160
     5.2000       144
     5.2200       178
     5.2400       152
     5.2600       164
     5.2800       160
     5.3000       180
     5.3200       162
     5.3400       158
     5.3600       158
     5.3800       166
     5.4000       146
     5.4200       160
     5.4400       148
     5.4600       182
     5.4800       160
     5.5000       176
     5.5200       140
     5.5400       142
     5.5600       170
     5.5800       184
     5.6000       170
     5.6200       172
     5.6400       168
     5.6600       142
     5.6800       186
     5.7000       178
     5.7200       168
     5.7400       186
     5.7600       148
     5.7800       168
     5.8000       170
     5.8200       166
     5.8400       180
     5.8600       164
     5.8800       166
     5.9000       160
     5.9200       154
     5.9400       170
     5.9600       158
     5.9800       134
     6.0000       162
     6.0200       174
     6.0400       160
     6.0600       174
     6.0800       162
     6.1000       160
     6.1200       154
     6.1400       158
     6.1600       180
     6.1800       160
     6.2000       178
     6.2200       160
     6.2400       176
     6.2600       144
     6.2800       162
     6.3000       152
     6.3200       182
     6.3400       144
     6.3600       138
     6.3800       122
     6.4000       156
     6.4200       160
     6.4400       142
     6.4600       138
     6.4800       176
     6.5000       126
     6.5200       120
     6.5400       148
     6.5600       146
     6.5800       148
     6.6000       132
     6.6200       144
     6.6400       134
     6.6600       128
     6.6800       166
     6.7000       144
     6.7200       120
     6.7400       118
     6.7600       120
     6.7800       144
     6.8000       138
     6.8200       154
     6.8400       130
     6.8600       122
     6.8800       138
     6.9000       122
     6.9200       122
     6.9400       110
     6.9600       138
     6.9800       128
     7.0000       122
     7.0200       110
     7.0400       132
     7.0600       134
     7.0800       114
     7.1000       128
     7.1200       132
     7.1400        98
     7.1600       130
     7.1800       118
     7.2000       142
     7.2200       128
     7.2400       118
     7.2600       114
     7.2800       124
     7.3000       106
     7.3200       136
     7.3400       128
     7.3600       128
     7.3800       114
     7.4000       104
     7.4200       130
     7.4400       116
     7.4600       152
     7.4800       114
     7.5000       130
     7.5200       148
     7.5400       126
     7.5600       104
     7.5800       126
     7.6000        94
     7.6200       118
     7.6400       114
     7.6600       114
     7.6800       124
     7.7000       116
     7.7200       116
     7.7400       142
     7.7600       100
     7.7800       118
     7.8000       104
     7.8200       122
     7.8400       116
     7.8600       114
     7.8800       130
     7.9000       132
     7.9200       126
     7.9400       136
     7.9600       118
     7.9800       124
     8.0000       124
     8.0200       106
     8.0400       108
     8.0600       124
     8.0800       106
     8.1000       130
     8.1200       108
     8.1400       118
     8.1600       112
     8.1800       126
     8.2000       106
     8.2200       110
     8.2400       106
     8.2600       110
     8.2800       114
     8.3000       112
     8.3200       136
     8.3400        92
     8.3600        98
     8.3800       112
     8.4000       118
     8.4200       116
     8.4400       110
     8.4600       120
     8.4800       116
     8.5000       160
     8.5200       110
     8.5400       138
     8.5600       120
     8.5800       120
     8.6000        98
     8.6200       150
     8.6400       130
     8.6600       116
     8.6800       118
     8.7000       110
     8.7200       124
     8.7400       114
     8.7600       108
     8.7800       134
     8.8000       114
     8.8200       118
     8.8400       146
     8.8600       124
     8.8800       130
     8.9000       120
     8.9200       122
     8.9400       120
     8.9600       128
     8.9800       116
     9.0000       118
     9.0200       118
     9.0400       136
     9.0600       154
     9.0800       134
     9.1000       122
     9.1200       128
     9.1400       120
     9.1600       142
     9.1800       128
     9.2000       120
     9.2200       106
     9.2400       114
     9.2600       122
     9.2800       102
     9.3000       116
     9.3200       118
     9.3400       118
     9.3600       126
     9.3800       114
     9.4000       124
     9.4200       122
     9.4400       136
     9.4600       110
     9.4800       104
     9.5000       122
     9.5200       114
     9.5400       122
     9.5600       120
     9.5800       126
     9.6000       100
     9.6200       120
     9.6400       116
     9.6600       112
     9.6800       110
     9.7000       126
     9.7200       108
     9.7400       100
     9.7600       110
     9.7800       102
     9.8000        94
     9.8200       104
     9.8400       100
     9.8600       134
     9.8800       114
     9.9000       132
     9.9200       120
     9.9400       118
     9.9600       122
     9.9800       130
    10.0000       108
    10.0200       124
    10.0400       110
    10.0600       124
    10.0800       116
    10.1000        94
    10.1200       100
    10.1400       110
    10.1600        98
    10.1800       106
    10.2000       116
    10.2200       114
    10.2400        98
    10.2600       120
    10.2800       114
    10.3000       128
    10.3200       110
    10.3400       122
    10.3600        94
    10.3800       104
    10.4000       112
    10.4200        96
    10.4400       116
    10.4600       116
    10.4800       102
    10.5000        98
    10.5200        88
    10.5400       112
    10.5600       102
    10.5800       116
    10.6000       120
    10.6200       100
    10.6400        98
    10.6600        90
    10.6800        94
    10.7000       108
    10.7200        96
    10.7400        84
    10.7600        90
    10.7800       106
    10.8000        84
    10.8200        84
    10.8400        86
    10.8600        82
    10.8800       112
    10.9000        92
    10.9200        84
    10.9400       110
    10.9600       118
    10.9800        98
    11.0000        82
    11.0200        88
    11.0400        90
    11.0600        92
    11.0800        96
    11.1000       100
    11.1200        90
    11.1400        98
    11.1600        80
    11.1800        86
    11.2000        84
    11.2200        84
    11.2400        80
    11.2600       108
    11.2800        88
    11.3000        98
    11.3200        92
    11.3400        74
    11.3600       100
    11.3800        84
    11.4000       102
    11.4200        98
    11.4400       102
    11.4600        94
    11.4800        90
    11.5000       100
    11.5200        98
    11.5400        96
    11.5600        84
    11.5800        92
    11.6000        98
    11.6200        94
    11.6400       102
    11.6600        98
    11.6800        78
    11.7000        88
    11.7200        94
    11.7400       100
    11.7600        94
    11.7800        94
    11.8000       102
    11.8200        72
    11.8400        96
    11.8600        74
    11.8800        90
    11.9000        82
    11.9200        98
    11.9400        98
    11.9600        76
    11.9800        88
    12.0000        84
    12.0200        86
    12.0400        86
    12.0600        78
    12.0800        88
    12.1000        96
    12.1200        86
    12.1400        88
    12.1600        84
    12.1800        98
    12.2000        82
    12.2200       104
    12.2400        84
    12.2600        62
    12.2800        60
    12.3000        76
    12.3200        82
    12.3400        76
    12.3600        82
    12.3800        66
    12.4000        86
    12.4200        86
    12.4400        80
    12.4600        72
    12.4800        72
    12.5000        80
    12.5200        90
    12.5400        76
    12.5600        98
    12.5800        76
    12.6000        72
    12.6200        82
    12.6400        76
    12.6600        84
    12.6800        80
    12.7000        90
    12.7200        78
    12.7400        92
    12.7600        82
    12.7800        80
    12.8000        86
    12.8200        82
    12.8400        70
    12.8600        88
    12.8800        62
    12.9000        90
    12.9200        68
    12.9400        84
    12.9600        98
    12.9800        76
    13.0000        72
    13.0200        66
    13.0400        68
    13.0600        72
    13.0800        70
    13.1000        70
    13.1200        74
    13.1400        56
    13.1600        68
    13.1800        78
    13.2000        98
    13.2200        76
    13.2400        72
    13.2600        76
    13.2800        74
    13.3000        86
    13.3200        60
    13.3400        78
    13.3600        68
    13.3800        76
    13.4000        72
    13.4200        70
    13.4400        64
    13.4600        74
    13.4800        90
    13.5000        66
    13.5200        84
    13.5400        76
    13.5600        78
    13.5800        70
    13.6000        84
    13.6200        66
    13.6400        68
    13.6600        76
    13.6800        82
    13.7000        68
    13.7200        66
    13.7400        84
    13.7600        82
    13.7800        68
    13.8000        74
    13.8200        60
    13.8400        62
    13.8600        64
    13.8800        58
    13.9000        70
    13.9200        68
    13.9400        68
    13.9600        58
    13.9800        50
    14.0000        82
    14.0200        76
    14.0400        70
    14.0600        80
    14.0800        60
    14.1000        76
    14.1200        90
    14.1400        72
    14.1600        68
    14.1800        54
    14.2000        86
    14.2200        60
    14.2400        66
    14.2600        62
    14.2800        86
    14.3000        70
    14.3200        80
    14.3400        60
    14.3600        72
    14.3800        72
    14.4000        54
    14.4200        82
    14.4400        70
    14.4600        60
    14.4800        78
    14.5000        64
    14.5200        62
    14.5400        70
    14.5600        66
    14.5800        56
    14.6000        64
    14.6200        66
    14.6400        72
    14.6600        82
    14.6800        78
    14.7000        70
    14.7200        74
    14.7400        62
    14.7600        74
    14.7800        72
    14.8000        74
    14.8200        56
    14.8400        66
    14.8600        50
    14.8800        52
    14.9000        76
    14.9200        68
    14.9400        64
    14.9600        60
    14.9800        70
    15.0000        70
    15.0200        60
    15.0400        56
    15.0600        56
    15.0800        50
    15.1000        76
    15.1200        76
    15.1400        58
    15.1600        60
    15.1800        60
    15.2000        54
    15.2200        64
    15.2400        74
    15.2600        54
    15.2800        76
    15.3000        74
    15.3200        54
    15.3400        74
    15.3600        72
    15.3800        64
    15.4000        72
    15.4200        70
    15.4400        76
    15.4600        68
    15.4800        48
    15.5000        54
    15.5200        62
    15.5400        56
    15.5600        64
    15.5800        42
    15.6000        78
    15.6200        56
    15.6400        70
    15.6600        64
    15.6800        70
    15.7000        82
    15.7200        66
    15.7400        62
    15.7600        66
    15.7800        48
    15.8000        74
    15.8200        52
    15.8400        62
    15.8600        74
    15.8800        52
    15.9000        62
    15.9200        54
    15.9400        56
    15.9600        54
    15.9800        64
    16.0000        58
    16.0200        56
    16.0400        58
    16.0600        60
    16.0800        64
    16.1000        72
    16.1200        72
    16.1400        56
    16.1600        68
    16.1800        58
    16.2000        48
    16.2200        54
    16.2400        64
    16.2600        48
    16.2800        60
    16.3000        80
    16.3200        66
    16.3400        56
    16.3600        58
    16.3800        66
    16.4000        74
    16.4200        50
    16.4400        56
    16.4600        64
    16.4800        62
    16.5000        46
    16.5200        66
    16.5400        76
    16.5600        50
    16.5800        62
    16.6000        60
    16.6200        54
    16.6400        70
    16.6600        72
    16.6800        66
    16.7000        60
    16.7200        68
    16.7400        64
    16.7600        54
    16.7800        58
    16.8000        74
    16.8200        60
    16.8400        64
    16.8600        50
    16.8800        56
    16.9000        62
    16.9200        54
    16.9400        72
    16.9600        62
    16.9800        42
    17.0000        56
    17.0200        58
    17.0400        64
    17.0600        60
    17.0800        62
    17.1000        60
    17.1200        60
    17.1400        54
    17.1600        50
    17.1800        58
    17.2000        52
    17.2200        48
    17.2400        82
    17.2600        50
    17.2800        72
    17.3000        58
    17.3200        64
    17.3400        54
    17.3600        42
    17.3800        48
    17.4000        60
    17.4200        34
    17.4400        56
    17.4600        54
    17.4800        70
    17.5000        62
    17.5200        62
    17.5400        56
    17.5600        60
    17.5800        52
    17.6000        56
    17.6200        66
    17.6400        58
    17.6600        62
    17.6800        62
    17.7000        48
    17.7200        54
    17.7400        54
    17.7600        58
    17.7800        66
    17.8000        54
    17.8200        48
    17.8400        48
    17.8600        56
    17.8800        56
    17.9000        64
    17.9200        54
    17.9400        48
    17.9600        52
    17.9800        60
    18.0000        54
    18.0200        66
    18.0400        48
    18.0600        64
    18.0800        60
    18.1000        48
    18.1200        58
    18.1400        44
    18.1600        56
    18.1800        52
    18.2000        50
    18.2200        44
    18.2400        62
    18.2600        68
    18.2800        66
    18.3000        42
    18.3200        60
    18.3400        50
    18.3600        54
    18.3800        66
    18.4000        56
    18.4200        56
    18.4400        54
    18.4600        48
    18.4800        62
    18.5000        64
    18.5200        62
    18.5400        48
    18.5600        48
    18.5800        66
    18.6000        56
    18.6200        66
    18.6400        82
    18.6600        64
    18.6800        82
    18.7000        80
    18.7200        82
    18.7400        78
    18.7600        80
    18.7800        80
    18.8000        54
    18.8200        68
    18.8400        66
    18.8600        62
    18.8800        60
    18.9000        36
    18.9200        54
    18.9400        64
    18.9600        54
    18.9800        52
    19.0000        62
    19.0200        64
    19.0400        50
    19.0600        48
    19.0800        44
    19.1000        42
    19.1200        56
    19.1400        54
    19.1600        66
    19.1800        62
    19.2000        54
    19.2200        60
    19.2400        54
    19.2600        68
    19.2800        50
    19.3000        50
    19.3200        50
    19.3400        62
    19.3600        48
    19.3800        44
    19.4000        48
    19.4200        52
    19.4400        54
    19.4600        46
    19.4800        56
    19.5000        60
    19.5200        52
    19.5400        46
    19.5600        64
    19.5800        68
    19.6000        42
    19.6200        66
    19.6400        52
    19.6600        60
    19.6800        48
    19.7000        72
    19.7200        50
    19.7400        50
    19.7600        56
    19.7800        54
    19.8000        52
    19.8200        52
    19.8400        40
    19.8600        52
    19.8800        40
    19.9000        54
    19.9200        50
    19.9400        54
    19.9600        64
    19.9800        50
    20.0000        48
    20.0200        68
    20.0400        40
    20.0600        50
    20.0800        66
    20.1000        42
    20.1200        50
    20.1400        56
    20.1600        60
    20.1800        44
    20.2000        42
    20.2200        44
    20.2400        50
    20.2600        54
    20.2800        54
    20.3000        60
    20.3200        50
    20.3400        60
    20.3600        46
    20.3800        42
    20.4000        60
    20.4200        46
    20.4400        42
    20.4600        56
    20.4800        40
    20.5000        50
    20.5200        60
    20.5400        46
    20.5600        44
    20.5800        44
    20.6000        46
    20.6200        38
    20.6400        48
    20.6600        70
    20.6800        66
    20.7000        46
    20.7200        56
    20.7400        66
    20.7600        72
    20.7800        62
    20.8000        56
    20.8200        48
    20.8400        74
    20.8600        28
    20.8800        48
    20.9000        50
    20.9200        36
    20.9400        52
    20.9600        46
    20.9800        36
    21.0000        48
    21.0200        54
    21.0400        36
    21.0600        48
    21.0800        42
    21.1000        48
    21.1200        48
    21.1400        54
    21.1600        50
    21.1800        44
    21.2000        50
    21.2200        48
    21.2400        54
    21.2600        42
    21.2800        58
    21.3000        42
    21.3200        42
    21.3400        60
    21.3600        60
    21.3800        62
    21.4000        56
    21.4200        34
    21.4400        56
    21.4600        52
    21.4800        56
    21.5000        52
    21.5200        62
    21.5400        48
    21.5600        50
    21.5800        52
    21.6000        74
    21.6200        64
    21.6400        58
    21.6600        58
    21.6800        56
    21.7000        58
    21.7200        48
    21.7400        60
    21.7600        52
    21.7800        40
    21.8000        42
    21.8200        50
    21.8400        56
    21.8600        52
    21.8800        48
    21.9000        54
    21.9200        46
    21.9400        48
    21.9600        52
    21.9800        38
    22.0000        50
    22.0200        34
    22.0400        40
    22.0600        46
    22.0800        44
    22.1000        40
    22.1200        52
    22.1400        48
    22.1600        54
    22.1800        46
    22.2000        38
    22.2200        50
    22.2400        40
    22.2600        36
    22.2800        50
    22.3000        42
    22.3200        40
    22.3400        46
    22.3600        40
    22.3800        42
    22.4000        36
    22.4200        46
    22.4400        52
    22.4600        56
    22.4800        38
    22.5000        44
    22.5200        42
    22.5400        68
    22.5600        40
    22.5800        54
    22.6000        40
    22.6200        28
    22.6400        60
    22.6600        42
    22.6800        34
    22.7000        54
    22.7200        36
    22.7400        38
    22.7600        38
    22.7800        38
    22.8000        40
    22.8200        50
    22.8400        52
    22.8600        52
    22.8800        42
    22.9000        44
    22.9200        44
    22.9400        32
    22.9600        26
    22.9800        38
    23.0000        56
    23.0200        34
    23.0400        44
    23.0600        58
    23.0800        36
    23.1000        58
    23.1200        46
    23.1400        40
    23.1600        42
    23.1800        40
    23.2000        36
    23.2200        48
    23.2400        44
    23.2600        58
    23.2800        46
    23.3000        46
    23.3200        38
    23.3400        48
    23.3600        40
    23.3800        44
    23.4000        44
    23.4200        36
    23.4400        38
    23.4600        54
    23.4800        40
    23.5000        36
    23.5200        38
    23.5400        48
    23.5600        48
    23.5800        44
    23.6000        34
    23.6200        44
    23.6400        38
    23.6600        38
    23.6800        46
    23.7000        52
    23.7200        50
    23.7400        34
    23.7600        42
    23.7800        52
    23.8000        46
    23.8200        54
    23.8400        36
    23.8600        50
    23.8800        52
    23.9000        44
    23.9200        46
    23.9400        40
    23.9600        40
    23.9800        42
    24.0000        46
    24.0200        44
    24.0400        40
    24.0600        40
    24.0800        38
    24.1000        36
    24.1200        40
    24.1400        44
    24.1600        26
    24.1800        30
    24.2000        46
    24.2200        40
    24.2400        44
    24.2600        42
    24.2800        48
    24.3000        50
    24.3200        32
    24.3400        34
    24.3600        38
    24.3800        32
    24.4000        40
    24.4200        42
    24.4400        32
    24.4600        42
    24.4800        56
    24.5000        36
    24.5200        34
    24.5400        32
    24.5600        28
    24.5800        42
    24.6000        30
    24.6200        36
    24.6400        38
    24.6600        46
    24.6800        40
    24.7000        38
    24.7200        36
    24.7400        42
    24.7600        50
    24.7800        40
    24.8000        36
    24.8200        38
    24.8400        40
    24.8600        30
    24.8800        32
    24.9000        36
    24.9200        48
    24.9400        42
    24.9600        38
    24.9800        44
    25.0000        42
    25.0200        52
    25.0400        32
    25.0600        36
    25.0800        38
    25.1000        46
    25.1200        40
    25.1400        46
    25.1600        38
    25.1800        36
    25.2000        34
    25.2200        46
    25.2400        42
    25.2600        38
    25.2800        42
    25.3000        24
    25.3200        52
    25.3400        32
    25.3600        30
    25.3800        38
    25.4000        34
    25.4200        40
    25.4400        36
    25.4600        34
    25.4800        34
    25.5000        36
    25.5200        34
    25.5400        52
    25.5600        50
    25.5800        44
    25.6000        36
    25.6200        32
    25.6400        32
    25.6600        34
    25.6800        30
    25.7000        30
    25.7200        30
    25.7400        30
    25.7600        38
    25.7800        32
    25.8000        40
    25.8200        44
    25.8400        36
    25.8600        48
    25.8800        38
    25.9000        42
    25.9200        44
    25.9400        36
    25.9600        32
    25.9800        44
    26.0000        34
    26.0200        30
    26.0400        34
    26.0600        30
    26.0800        38
    26.1000        26
    26.1200        40
    26.1400        44
    26.1600        46
    26.1800        28
    26.2000        34
    26.2200        36
    26.2400        38
    26.2600        42
    26.2800        30
    26.3000        32
    26.3200        40
    26.3400        44
    26.3600        52
    26.3800        48
    26.4000        62
    26.4200        74
    26.4400        52
    26.4600        46
    26.4800        70
    26.5000        64
    26.5200        66
    26.5400        46
    26.5600        50
    26.5800        58
    26.6000        60
    26.6200        44
    26.6400        44
    26.6600        50
    26.6800        34
    26.7000        48
    26.7200        50
    26.7400        36
    26.7600        32
    26.7800        36
    26.8000        40
    26.8200        34
    26.8400        28
    26.8600        32
    26.8800        42
    26.9000        40
    26.9200        40
    26.9400        32
    26.9600        34
    26.9800        38
    27.0000        32
    27.0200        38
    27.0400        26
    27.0600        26
    27.0800        32
    27.1000        38
    27.1200        28
    27.1400        32
    27.1600        34
    27.1800        34
    27.2000        42
    27.2200        22
    27.2400        32
    27.2600        32
    27.2800        36
    27.3000        36
    27.3200        28
    27.3400        36
    27.3600        44
    27.3800        30
    27.4000        40
    27.4200        36
    27.4400        30
    27.4600        34
    27.4800        24
    27.5000        34
    27.5200        26
    27.5400        32
    27.5600        34
    27.5800        32
    27.6000        30
    27.6200        32
    27.6400        30
    27.6600        46
    27.6800        34
    27.7000        32
    27.7200        44
    27.7400        30
    27.7600        34
    27.7800        26
    27.8000        38
    27.8200        34
    27.8400        30
    27.8600        38
    27.8800        32
    27.9000        34
    27.9200        42
    27.9400        34
    27.9600        38
    27.9800        40
    28.0000        36
    28.0200        32
    28.0400        34
    28.0600        40
    28.0800        38
    28.1000        18
    28.1200        44
    28.1400        32
    28.1600        32
    28.1800        48
    28.2000        28
    28.2200        48
    28.2400        32
    28.2600        40
    28.2800        40
    28.3000        40
    28.3200        38
    28.3400        36
    28.3600        38
    28.3800        34
    28.4000        34
    28.4200        40
    28.4400        38
    28.4600        24
    28.4800        38
    28.5000        40
    28.5200        30
    28.5400        32
    28.5600        32
    28.5800        38
    28.6000        28
    28.6200        30
    28.6400        36
    28.6600        34
    28.6800        50
    28.7000        32
    28.7200        42
    28.7400        40
    28.7600        54
    28.7800        44
    28.8000        62
    28.8200        70
    28.8400        72
    28.8600        58
    28.8800        48
    28.9000        40
    28.9200        42
    28.9400        38
    28.9600        30
    28.9800        24
    29.0000        52
    29.0200        30
    29.0400        36
    29.0600        40
    29.0800        34
    29.1000        38
    29.1200        30
    29.1400        28
    29.1600        22
    29.1800        44
    29.2000        36
    29.2200        32
    29.2400        28
    29.2600        32
    29.2800        24
    29.3000        40
    29.3200        36
    29.3400        32
    29.3600        34
    29.3800        38
    29.4000        38
    29.4200        34
    29.4400        34
    29.4600        30
    29.4800        36
    29.5000        36
    29.5200        26
    29.5400        28
    29.5600        34
    29.5800        26
    29.6000        42
    29.6200        42
    29.6400        28
    29.6600        36
    29.6800        34
    29.7000        34
    29.7200        28
    29.7400        26
    29.7600        38
    29.7800        44
    29.8000        42
    29.8200        30
    29.8400        34
    29.8600        48
    29.8800        32
    29.9000        28
    29.9200        32
    29.9400        34
    29.9600        42
    29.9800        22
    30.0000        22
    30.0200        30
    30.0400        32
    30.0600        46
    30.0800        28
    30.1000        32
    30.1200        24
    30.1400        46
    30.1600        32
    30.1800        42
    30.2000        36
    30.2200        36
    30.2400        40
    30.2600        26
    30.2800        26
    30.3000        40
    30.3200        44
    30.3400        24
    30.3600        40
    30.3800        26
    30.4000        44
    30.4200        26
    30.4400        48
    30.4600        36
    30.4800        34
    30.5000        36
    30.5200        22
    30.5400        36
    30.5600        46
    30.5800        50
    30.6000        50
    30.6200        50
    30.6400        56
    30.6600        74
    30.6800        88
    30.7000       138
    30.7200       128
    30.7400       146
    30.7600       150
    30.7800       240
    30.8000       348
    30.8200       362
    30.8400       288
    30.8600       280
    30.8800       322
    30.9000       378
    30.9200       356
    30.9400       304
    30.9600       212
    30.9800       146
    31.0000       168
    31.0200       152
    31.0400       104
    31.0600        70
    31.0800        58
    31.1000        48
    31.1200        40
    31.1400        32
    31.1600        42
    31.1800        44
    31.2000        48
    31.2200        48
    31.2400        32
    31.2600        24
    31.2800        34
    31.3000        26
    31.3200        28
    31.3400        28
    31.3600        22
    31.3800        26
    31.4000        32
    31.4200        26
    31.4400        40
    31.4600        26
    31.4800        34
    31.5000        26
    31.5200        16
    31.5400        38
    31.5600        24
    31.5800        22
    31.6000        26
    31.6200        34
    31.6400        34
    31.6600        24
    31.6800        30
    31.7000        32
    31.7200        38
    31.7400        46
    31.7600        28
    31.7800        26
    31.8000        24
    31.8200        34
    31.8400        26
    31.8600        32
    31.8800        24
    31.9000        30
    31.9200        24
    31.9400        24
    31.9600        26
    31.9800        34
    32.0000        30
    32.0200        32
    32.0400        30
    32.0600        36
    32.0800        32
    32.1000        26
    32.1200        26
    32.1400        36
    32.1600        32
    32.1800        38
    32.2000        38
    32.2200        36
    32.2400        28
    32.2600        30
    32.2800        40
    32.3000        28
    32.3200        36
    32.3400        32
    32.3600        28
    32.3800        34
    32.4000        24
    32.4200        30
    32.4400        16
    32.4600        28
    32.4800        30
    32.5000        22
    32.5200        42
    32.5400        26
    32.5600        34
    32.5800        28
    32.6000        42
    32.6200        22
    32.6400        34
    32.6600        32
    32.6800        24
    32.7000        28
    32.7200        36
    32.7400        42
    32.7600        40
    32.7800        34
    32.8000        26
    32.8200        32
    32.8400        32
    32.8600        18
    32.8800        16
    32.9000        24
    32.9200        42
    32.9400        28
    32.9600        28
    32.9800        22
    33.0000        38
    33.0200        42
    33.0400        36
    33.0600        26
    33.0800        24
    33.1000        48
    33.1200        32
    33.1400        22
    33.1600        24
    33.1800        30
    33.2000        36
    33.2200        30
    33.2400        36
    33.2600        22
    33.2800        36
    33.3000        32
    33.3200        28
    33.3400        36
    33.3600        36
    33.3800        40
    33.4000        22
    33.4200        38
    33.4400        36
    33.4600        30
    33.4800        22
    33.5000        34
    33.5200        26
    33.5400        24
    33.5600        34
    33.5800        26
    33.6000        40
    33.6200        26
    33.6400        26
    33.6600        24
    33.6800        30
    33.7000        28
    33.7200        30
    33.7400        20
    33.7600        24
    33.7800        26
    33.8000        28
    33.8200        30
    33.8400        32
    33.8600        42
    33.8800        32
    33.9000        22
    33.9200        28
    33.9400        34
    33.9600        48
    33.9800        24
    34.0000        32
    34.0200        30
    34.0400        32
    34.0600        26
    34.0800        44
    34.1000        24
    34.1200        38
    34.1400        34
    34.1600        40
    34.1800        34
    34.2000        46
    34.2200        46
    34.2400        44
    34.2600        50
    34.2800        62
    34.3000        54
    34.3200        50
    34.3400        50
    34.3600        74
    34.3800        74
    34.4000        84
    34.4200        98
    34.4400       158
    34.4600       132
    34.4800       174
    34.5000       214
    34.5200       264
    34.5400       324
    34.5600       408
    34.5800       532
    34.6000       716
    34.6200       932
    34.6400      1188
    34.6600      1004
    34.6800       942
    34.7000       812
    34.7200       702
    34.7400       618
    34.7600       468
    34.7800       392
    34.8000       286
    34.8200       170
    34.8400       108
    34.8600        84
    34.8800        62
    34.9000        52
    34.9200        50
    34.9400        34
    34.9600        40
    34.9800        46
    35.0000        52
    35.0200        40
    35.0400        46
    35.0600        40
    35.0800        44
    35.1000        38
    35.1200        36
    35.1400        32
    35.1600        44
    35.1800        34
    35.2000        26
    35.2200        32
    35.2400        28
    35.2600        38
    35.2800        34
    35.3000        40
    35.3200        30
    35.3400        38
    35.3600        36
    35.3800        30
    35.4000        40
    35.4200        30
    35.4400        30
    35.4600        30
    35.4800        28
    35.5000        34
    35.5200        32
    35.5400        34
    35.5600        28
    35.5800        34
    35.6000        32
    35.6200        26
    35.6400        30
    35.6600        30
    35.6800        30
    35.7000        30
    35.7200        22
    35.7400        32
    35.7600        36
    35.7800        32
    35.8000        28
    35.8200        28
    35.8400        26
    35.8600        24
    35.8800        30
    35.9000        24
    35.9200        40
    35.9400        32
    35.9600        30
    35.9800        28
    36.0000        18
    36.0200        22
    36.0400        30
    36.0600        26
    36.0800        28
    36.1000        20
    36.1200        26
    36.1400        24
    36.1600        26
    36.1800        34
    36.2000        26
    36.2200        36
    36.2400        30
    36.2600        36
    36.2800        36
    36.3000        64
    36.3200        80
    36.3400        64
    36.3600       104
    36.3800       126
    36.4000       142
    36.4200       118
    36.4400       126
    36.4600       100
    36.4800        88
    36.5000        96
    36.5200        76
    36.5400        60
    36.5600        42
    36.5800        52
    36.6000        26
    36.6200        38
    36.6400        30
    36.6600        34
    36.6800        34
    36.7000        40
    36.7200        44
    36.7400        34
    36.7600        26
    36.7800        38
    36.8000        24
    36.8200        20
    36.8400        38
    36.8600        28
    36.8800        38
    36.9000        28
    36.9200        36
    36.9400        24
    36.9600        42
    36.9800        28
    37.0000        34
    37.0200        32
    37.0400        26
    37.0600        34
    37.0800        26
    37.1000        22
    37.1200        36
    37.1400        36
    37.1600        22
    37.1800        30
    37.2000        20
    37.2200        28
    37.2400        30
    37.2600        28
    37.2800        20
    37.3000        34
    37.3200        22
    37.3400        26
    37.3600        26
    37.3800        28
    37.4000        24
    37.4200        36
    37.4400        34
    37.4600        46
    37.4800        32
    37.5000        20
    37.5200        26
    37.5400        26
    37.5600        32
    37.5800        34
    37.6000        28
    37.6200        34
    37.6400        30
    37.6600        26
    37.6800        32
    37.7000        36
    37.7200        28
    37.7400        30
    37.7600        22
    37.7800        28
    37.8000        32
    37.8200        38
    37.8400        22
    37.8600        40
    37.8800        48
    37.9000        66
    37.9200        62
    37.9400        46
    37.9600        68
    37.9800        90
    38.0000       136
    38.0200       178
    38.0400       254
    38.0600       244
    38.0800       208
    38.1000       206
    38.1200       190
    38.1400       194
    38.1600       180
    38.1800       128
    38.2000        86
    38.2200        80
    38.2400        52
    38.2600        60
    38.2800        44
    38.3000        34
    38.3200        38
    38.3400        28
    38.3600        28
    38.3800        34
    38.4000        38
    38.4200        40
    38.4400        32
    38.4600        24
    38.4800        30
    38.5000        20
    38.5200        16
    38.5400        36
    38.5600        36
    38.5800        30
    38.6000        34
    38.6200        18
    38.6400        26
    38.6600        20
    38.6800        24
    38.7000        34
    38.7200        26
    38.7400        30
    38.7600        44
    38.7800        22
    38.8000        28
    38.8200        24
    38.8400        20
    38.8600        34
    38.8800        34
    38.9000        32
    38.9200        28
    38.9400        32
    38.9600        28
    38.9800        24
    39.0000        28
    39.0200        30
    39.0400        34
    39.0600        28
    39.0800        26
    39.1000        30
    39.1200        22
    39.1400        28
    39.1600        26
    39.1800        30
    39.2000        38
    39.2200        28
    39.2400        38
    39.2600        32
    39.2800        22
    39.3000        30
    39.3200        24
    39.3400        34
    39.3600        26
    39.3800        40
    39.4000        30
    39.4200        28
    39.4400        42
    39.4600        32
    39.4800        32
    39.5000        48
    39.5200        46
    39.5400        58
    39.5600        52
    39.5800        44
    39.6000        52
    39.6200        92
    39.6400       102
    39.6600       158
    39.6800       138
    39.7000       182
    39.7200       176
    39.7400       182
    39.7600       176
    39.7800       132
    39.8000       108
    39.8200       104
    39.8400        94
    39.8600        88
    39.8800        82
    39.9000        62
    39.9200        40
    39.9400        44
    39.9600        22
    39.9800        40
    40.0000        32
    40.0200        44
    40.0400        32
    40.0600        30
    40.0800        34
    40.1000        60
    40.1200        34
    40.1400        40
    40.1600        38
    40.1800        44
    40.2000        44
    40.2200        22
    40.2400        28
    40.2600        32
    40.2800        22
    40.3000        28
    40.3200        26
    40.3400        26
    40.3600        26
    40.3800        32
    40.4000        34
    40.4200        16
    40.4400        30
    40.4600        36
    40.4800        26
    40.5000        32
    40.5200        26
    40.5400        26
    40.5600        26
    40.5800        38
    40.6000        22
    40.6200        24
    40.6400        38
    40.6600        26
    40.6800        16
    40.7000        22
    40.7200        26
    40.7400        22
    40.7600        30
    40.7800        20
    40.8000        38
    40.8200        36
    40.8400        24
    40.8600        22
    40.8800        28
    40.9000        24
    40.9200        28
    40.9400        32
    40.9600        30
    40.9800        28
    41.0000        20
    41.0200        30
    41.0400        28
    41.0600        22
    41.0800        30
    41.1000        28
    41.1200        36
    41.1400        28
    41.1600        22
    41.1800        22
    41.2000        22
    41.2200        24
    41.2400        24
    41.2600        26
    41.2800        42
    41.3000        22
    41.3200        32
    41.3400        28
    41.3600        22
    41.3800        32
    41.4000        24
    41.4200        34
    41.4400        26
    41.4600        26
    41.4800        32
    41.5000        28
    41.5200        28
    41.5400        28
    41.5600        18
    41.5800        24
    41.6000        30
    41.6200        28
    41.6400        22
    41.6600        20
    41.6800        28
    41.7000        26
    41.7200        38
    41.7400        22
    41.7600        34
    41.7800        28
    41.8000        24
    41.8200        24
    41.8400        30
    41.8600        16
    41.8800        34
    41.9000        24
    41.9200        24
    41.9400        18
    41.9600        26
    41.9800        34
    42.0000        16
    42.0200        38
    42.0400        34
    42.0600        30
    42.0800        20
    42.1000        32
    42.1200        32
    42.1400        26
    42.1600        32
    42.1800        28
    42.2000        32
    42.2200        32
    42.2400        28
    42.2600        44
    42.2800        44
    42.3000        50
    42.3200        56
    42.3400        48
    42.3600        28
    42.3800        42
    42.4000        42
    42.4200        40
    42.4400        34
    42.4600        44
    42.4800        30
    42.5000        20
    42.5200        34
    42.5400        46
    42.5600        36
    42.5800        40
    42.6000        34
    42.6200        54
    42.6400        42
    42.6600        60
    42.6800        64
    42.7000        66
    42.7200       100
    42.7400       108
    42.7600       120
    42.7800       182
    42.8000       196
    42.8200       254
    42.8400       186
    42.8600       118
    42.8800       110
    42.9000       124
    42.9200       112
    42.9400        90
    42.9600        76
    42.9800        54
    43.0000        36
    43.0200        40
    43.0400        48
    43.0600        24
    43.0800        30
    43.1000        22
    43.1200        30
    43.1400        24
    43.1600        26
    43.1800        24
    43.2000        24
    43.2200        18
    43.2400        28
    43.2600        34
    43.2800        24
    43.3000        22
    43.3200        20
    43.3400        32
    43.3600        22
    43.3800        24
    43.4000        28
    43.4200        20
    43.4400        24
    43.4600        20
    43.4800        24
    43.5000        34
    43.5200        32
    43.5400        26
    43.5600        20
    43.5800        32
    43.6000        24
    43.6200        26
    43.6400        26
    43.6600        22
    43.6800        28
    43.7000        36
    43.7200        28
    43.7400        24
    43.7600        20
    43.7800        22
    43.8000        34
    43.8200        24
    43.8400        38
    43.8600        20
    43.8800        32
    43.9000        32
    43.9200        32
    43.9400        24
    43.9600        18
    43.9800        30
    44.0000        22
    44.0200        24
    44.0400        28
    44.0600        18
    44.0800        32
    44.1000        24
    44.1200        26
    44.1400        30
    44.1600        28
    44.1800        32
    44.2000        30
    44.2200        34
    44.2400        28
    44.2600        44
    44.2800        50
    44.3000        66
    44.3200        48
    44.3400        44
    44.3600        52
    44.3800        56
    44.4000        38
    44.4200        40
    44.4400        48
    44.4600        42
    44.4800        40
    44.5000        26
    44.5200        30
    44.5400        30
    44.5600        28
    44.5800        30
    44.6000        28
    44.6200        34
    44.6400        34
    44.6600        24
    44.6800        38
    44.7000        26
    44.7200        26
    44.7400        26
    44.7600        30
    44.7800        24
    44.8000        18
    44.8200        28
    44.8400        30
    44.8600        28
    44.8800        30
    44.9000        26
    44.9200        20
    44.9400        24
    44.9600        30
    44.9800        34
    45.0000        26
    45.0200        26
    45.0400        22
    45.0600        28
    45.0800        30
    45.1000        28
    45.1200        20
    45.1400        24
    45.1600        26
    45.1800        28
    45.2000        32
    45.2200        18
    45.2400        30
    45.2600        24
    45.2800        26
    45.3000        34
    45.3200        28
    45.3400        22
    45.3600        22
    45.3800        26
    45.4000        24
    45.4200        34
    45.4400        36
    45.4600        28
    45.4800        24
    45.5000        22
    45.5200        24
    45.5400        26
    45.5600        24
    45.5800        30
    45.6000        26
    45.6200        34
    45.6400        24
    45.6600        22
    45.6800        22
    45.7000        26
    45.7200        18
    45.7400        22
    45.7600        26
    45.7800        16
    45.8000        20
    45.8200        28
    45.8400        18
    45.8600        22
    45.8800        28
    45.9000        30
    45.9200        28
    45.9400        26
    45.9600        22
    45.9800        18
    46.0000        40
    46.0200        26
    46.0400        28
    46.0600        20
    46.0800        28
    46.1000        20
    46.1200        30
    46.1400        22
    46.1600        20
    46.1800        24
    46.2000        22
    46.2200        20
    46.2400        32
    46.2600        40
    46.2800        28
    46.3000        22
    46.3200        28
    46.3400        30
    46.3600        18
    46.3800        34
    46.4000        18
    46.4200        24
    46.4400        26
    46.4600        22
    46.4800        22
    46.5000        22
    46.5200        26
    46.5400        26
    46.5600        22
    46.5800        38
    46.6000        26
    46.6200        18
    46.6400        26
    46.6600        22
    46.6800        22
    46.7000        18
    46.7200        16
    46.7400        34
    46.7600        30
    46.7800        22
    46.8000        24
    46.8200        20
    46.8400        22
    46.8600        16
    46.8800        24
    46.9000        22
    46.9200        28
    46.9400        26
    46.9600        18
    46.9800        24
    47.0000        28
    47.0200        16
    47.0400        24
    47.0600        40
    47.0800        22
    47.1000        24
    47.1200        30
    47.1400        22
    47.1600        18
    47.1800        18
    47.2000        32
    47.2200        34
    47.2400        20
    47.2600        28
    47.2800        28
    47.3000        26
    47.3200        22
    47.3400        28
    47.3600        26
    47.3800        26
    47.4000        24
    47.4200        24
    47.4400        22
    47.4600        40
    47.4800        32
    47.5000        28
    47.5200        22
    47.5400        24
    47.5600        20
    47.5800        28
    47.6000        24
    47.6200        30
    47.6400        26
    47.6600        22
    47.6800        34
    47.7000        20
    47.7200        32
    47.7400        32
    47.7600        26
    47.7800        24
    47.8000        34
    47.8200        24
    47.8400        22
    47.8600        24
    47.8800        34
    47.9000        32
    47.9200        30
    47.9400        22
    47.9600        26
    47.9800        22
    48.0000        34
    48.0200        30
    48.0400        20
    48.0600        28
    48.0800        26
    48.1000        28
    48.1200        22
    48.1400        32
    48.1600        40
    48.1800        46
    48.2000        54
    48.2200        34
    48.2400        34
    48.2600        44
    48.2800        44
    48.3000        50
    48.3200        56
    48.3400        54
    48.3600        74
    48.3800        66
    48.4000       110
    48.4200       198
    48.4400       238
    48.4600       310
    48.4800       448
    48.5000       492
    48.5200       576
    48.5400       504
    48.5600       358
    48.5800       246
    48.6000       250
    48.6200       278
    48.6400       284
    48.6600       298
    48.6800       168
    48.7000       124
    48.7200        80
    48.7400        62
    48.7600        48
    48.7800        38
    48.8000        46
    48.8200        36
    48.8400        42
    48.8600        32
    48.8800        34
    48.9000        32
    48.9200        28
    48.9400        24
    48.9600        32
    48.9800        24
    49.0000        26
    49.0200        34
    49.0400        30
    49.0600        22
    49.0800        20
    49.1000        24
    49.1200        28
    49.1400        26
    49.1600        26
    49.1800        26
    49.2000        30
    49.2200        28
    49.2400        20
    49.2600        12
    49.2800        24
    49.3000        26
    49.3200        22
    49.3400        32
    49.3600        26
    49.3800        20
    49.4000        34
    49.4200        30
    49.4400        24
    49.4600        22
    49.4800        16
    49.5000        28
    49.5200        24
    49.5400        16
    49.5600        32
    49.5800        30
    49.6000        26
    49.6200        24
    49.6400        26
    49.6600        20
    49.6800        30
    49.7000        28
    49.7200        24
    49.7400        28
    49.7600        20
    49.7800        28
    49.8000        46
    49.8200        36
    49.8400        50
    49.8600        40
    49.8800        56
    49.9000        40
    49.9200        50
    49.9400        40
    49.9600        60
    49.9800        46
    50.0000        60
    50.0200        50
    50.0400        34
    50.0600        40
    50.0800        40
    50.1000        36
    50.1200        34
    50.1400        28
    50.1600        30
    50.1800        32
    50.2000        26
    50.2200        28
    50.2400        22
    50.2600        28
    50.2800        26
    50.3000        26
    50.3200        30
    50.3400        26
    50.3600        36
    50.3800        28
    50.4000        32
    50.4200        32
    50.4400        14
    50.4600        20
    50.4800        24
    50.5000        14
    50.5200        26
    50.5400        20
    50.5600        34
    50.5800        30
    50.6000        24
    50.6200        24
    50.6400        20
    50.6600        26
    50.6800        26
    50.7000        26
    50.7200        22
    50.7400        20
    50.7600        42
    50.7800        30
    50.8000        16
    50.8200        28
    50.8400        18
    50.8600        26
    50.8800        32
    50.9000        24
    50.9200        22
    50.9400        26
    50.9600        20
    50.9800        20
    51.0000        42
    51.0200        22
    51.0400        28
    51.0600        26
    51.0800        22
    51.1000        28
    51.1200        22
    51.1400        24
    51.1600        24
    51.1800        28
    51.2000        24
    51.2200        26
    51.2400        24
    51.2600        16
    51.2800        36
    51.3000        26
    51.3200        22
    51.3400        32
    51.3600        28
    51.3800        18
    51.4000        30
    51.4200        24
    51.4400        36
    51.4600        38
    51.4800        26
    51.5000        16
    51.5200        26
    51.5400        28
    51.5600        30
    51.5800        30
    51.6000        14
    51.6200        32
    51.6400        24
    51.6600        18
    51.6800        20
    51.7000        26
    51.7200        28
    51.7400        20
    51.7600        18
    51.7800        28
    51.8000        28
    51.8200        30
    51.8400        16
    51.8600        14
    51.8800        18
    51.9000        34
    51.9200        20
    51.9400        28
    51.9600        22
    51.9800        24
    52.0000        26
    52.0200        22
    52.0400        24
    52.0600        26
    52.0800        22
    52.1000        20
    52.1200        28
    52.1400        20
    52.1600        20
    52.1800        34
    52.2000        28
    52.2200        18
    52.2400        24
    52.2600        30
    52.2800        20
    52.3000        32
    52.3200        32
    52.3400        26
    52.3600        34
    52.3800        26
    52.4000        22
    52.4200        22
    52.4400        20
    52.4600        28
    52.4800        24
    52.5000        26
    52.5200        20
    52.5400        28
    52.5600        36
    52.5800        34
    52.6000        26
    52.6200        30
    52.6400        38
    52.6600        22
    52.6800        34
    52.7000        30
    52.7200        28
    52.7400        20
    52.7600        22
    52.7800        18
    52.8000        28
    52.8200        24
    52.8400        28
    52.8600        32
    52.8800        22
    52.9000        28
    52.9200        22
    52.9400        28
    52.9600        34
    52.9800        26
    53.0000        36
    53.0200        36
    53.0400        26
    53.0600        24
    53.0800        32
    53.1000        16
    53.1200        22
    53.1400        30
    53.1600        34
    53.1800        26
    53.2000        32
    53.2200        26
    53.2400        26
    53.2600        30
    53.2800        28
    53.3000        24
    53.3200        28
    53.3400        30
    53.3600        18
    53.3800        34
    53.4000        12
    53.4200        34
    53.4400        30
    53.4600        32
    53.4800        34
    53.5000        28
    53.5200        32
    53.5400        36
    53.5600        38
    53.5800        26
    53.6000        28
    53.6200        22
    53.6400        30
    53.6600        14
    53.6800        30
    53.7000        40
    53.7200        32
    53.7400        28
    53.7600        28
    53.7800        28
    53.8000        22
    53.8200        32
    53.8400        20
    53.8600        32
    53.8800        30
    53.9000        26
    53.9200        16
    53.9400        34
    53.9600        34
    53.9800        24
    54.0000        26
    54.0200        28
    54.0400        26
    54.0600        30
    54.0800        28
    54.1000        26
    54.1200        28
    54.1400        20
    54.1600        28
    54.1800        24
    54.2000        30
    54.2200        24
    54.2400        28
    54.2600        34
    54.2800        20
    54.3000        20
    54.3200        26
    54.3400        28
    54.3600        26
    54.3800        26
    54.4000        22
    54.4200        40
    54.4400        38
    54.4600        26
    54.4800        36
    54.5000        34
    54.5200        26
    54.5400        24
    54.5600        28
    54.5800        28
    54.6000        26
    54.6200        36
    54.6400        26
    54.6600        42
    54.6800        34
    54.7000        40
    54.7200        42
    54.7400        50
    54.7600        46
    54.7800        46
    54.8000        56
    54.8200        42
    54.8400        48
    54.8600        46
    54.8800        54
    54.9000        68
    54.9200        64
    54.9400       100
    54.9600       120
    54.9800       214
    55.0000       326
    55.0200       552
    55.0400       558
    55.0600       414
    55.0800       372
    55.1000       252
    55.1200       208
    55.1400       168
    55.1600       268
    55.1800       290
    55.2000       216
    55.2200       184
    55.2400       160
    55.2600        92
    55.2800        76
    55.3000        50
    55.3200        44
    55.3400        34
    55.3600        54
    55.3800        30
    55.4000        42
    55.4200        30
    55.4400        30
    55.4600        28
    55.4800        30
    55.5000        34
    55.5200        30
    55.5400        32
    55.5600        24
    55.5800        40
    55.6000        28
    55.6200        28
    55.6400        28
    55.6600        32
    55.6800        34
    55.7000        24
    55.7200        32
    55.7400        24
    55.7600        24
    55.7800        30
    55.8000        24
    55.8200        34
    55.8400        28
    55.8600        36
    55.8800        34
    55.9000        26
    55.9200        24
    55.9400        30
    55.9600        28
    55.9800        28
    56.0000        38
    56.0200        34
    56.0400        26
    56.0600        32
    56.0800        34
    56.1000        38
    56.1200        28
    56.1400        30
    56.1600        34
    56.1800        32
    56.2000        26
    56.2200        24
    56.2400        34
    56.2600        30
    56.2800        26
    56.3000        40
    56.3200        16
    56.3400        32
    56.3600        38
    56.3800        28
    56.4000        32
    56.4200        34
    56.4400        44
    56.4600        20
    56.4800        28
    56.5000        36
    56.5200        22
    56.5400        32
    56.5600        24
    56.5800        30
    56.6000        30
    56.6200        24
    56.6400        26
    56.6600        32
    56.6800        32
    56.7000        26
    56.7200        34
    56.7400        36
    56.7600        26
    56.7800        32
    56.8000        32
    56.8200        24
    56.8400        26
    56.8600        34
    56.8800        28
    56.9000        24
    56.9200        26
    56.9400        22
    56.9600        40
    56.9800        24
    57.0000        30
    57.0200        34
    57.0400        34
    57.0600        28
    57.0800        28
    57.1000        26
    57.1200        20
    57.1400        40
    57.1600        44
    57.1800        42
    57.2000        44
    57.2200        42
    57.2400        34
    57.2600        46
    57.2800        30
    57.3000        52
    57.3200        80
    57.3400        84
    57.3600       118
    57.3800       122
    57.4000       168
    57.4200       246
    57.4400       348
    57.4600       398
    57.4800       414
    57.5000       434
    57.5200       446
    57.5400       300
    57.5600       168
    57.5800       174
    57.6000       200
    57.6200       204
    57.6400       218
    57.6600       236
    57.6800       204
    57.7000       158
    57.7200       100
    57.7400        68
    57.7600        38
    57.7800        54
    57.8000        44
    57.8200        36
    57.8400        28
    57.8600        44
    57.8800        34
    57.9000        34
    57.9200        24
    57.9400        32
    57.9600        28
    57.9800        30
    58.0000        36
    58.0200        32
    58.0400        26
    58.0600        34
    58.0800        42
    58.1000        26
    58.1200        30
    58.1400        32
    58.1600        26
    58.1800        24
    58.2000        30
    58.2200        30
    58.2400        32
    58.2600        22
    58.2800        30
    58.3000        20
    58.3200        40
    58.3400        40
    58.3600        40
    58.3800        26
    58.4000        26
    58.4200        34
    58.4400        30
    58.4600        26
    58.4800        32
    58.5000        24
    58.5200        24
    58.5400        38
    58.5600        44
    58.5800        48
    58.6000        48
    58.6200        72
    58.6400        88
    58.6600        80
    58.6800        80
    58.7000        68
    58.7200        58
    58.7400        56
    58.7600        48
    58.7800        56
    58.8000        50
    58.8200        52
    58.8400        58
    58.8600        54
    58.8800        32
    58.9000        28
    58.9200        30
    58.9400        42
    58.9600        18
    58.9800        28
    59.0000        26
    59.0200        34
    59.0400        18
    59.0600        30
    59.0800        26
    59.1000        32
    59.1200        28
    59.1400        34
    59.1600        26
    59.1800        24
    59.2000        38
    59.2200        26
    59.2400        30
    59.2600        30
    59.2800        26
    59.3000        38
    59.3200        22
    59.3400        24
    59.3600        26
    59.3800        32
    59.4000        36
    59.4200        30
    59.4400        32
    59.4600        30
    59.4800        42
    59.5000        36
    59.5200        38
    59.5400        42
    59.5600        46
    59.5800        48
    59.6000        50
    59.6200        40
    59.6400        52
    59.6600        56
    59.6800        50
    59.7000        52
    59.7200        78
    59.7400       116
    59.7600       144
    59.7800       178
    59.8000       282
    59.8200       404
    59.8400       548
    59.8600       652
    59.8800       728
    59.9000       678
    59.9200       468
    59.9400       298
    59.9600       240
    59.9800       240
    60.0000       284
    60.0200       322
    60.0400       402
    60.0600       368
    60.0800       290
    60.1000       172
    60.1200       118
    60.1400        74
    60.1600        60
    60.1800        60
    60.2000        56
    60.2200        52
    60.2400        38
    60.2600        36
    60.2800        34
    60.3000        32
    60.3200        32
    60.3400        28
    60.3600        40
    60.3800        38
    60.4000        36
    60.4200        34
    60.4400        44
    60.4600        36
    60.4800        26
    60.5000        38
    60.5200        34
    60.5400        20
    60.5600        36
    60.5800        24
    60.6000        28
    60.6200        32
    60.6400        26
    60.6600        20
    60.6800        30
    60.7000        24
    60.7200        30
    60.7400        24
    60.7600        22
    60.7800        32
    60.8000        22
    60.8200        38
    60.8400        20
    60.8600        24
    60.8800        28
    60.9000        38
    60.9200        32
    60.9400        20
    60.9600        26
    60.9800        26
    61.0000        16
    61.0200        26
    61.0400        30
    61.0600        38
    61.0800        32
    61.1000        28
    61.1200        30
    61.1400        22
    61.1600        32
    61.1800        30
    61.2000        18
    61.2200        20
    61.2400        12
    61.2600        36
    61.2800        20
    61.3000        32
    61.3200        26
    61.3400        32
    61.3600        30
    61.3800        22
    61.4000        26
    61.4200        22
    61.4400        22
    61.4600        30
    61.4800        24
    61.5000        28
    61.5200        30
    61.5400        26
    61.5600        14
    61.5800        20
    61.6000        26
    61.6200        26
    61.6400        24
    61.6600        30
    61.6800        20
    61.7000        24
    61.7200        26
    61.7400        26
    61.7600        26
    61.7800        32
    61.8000        22
    61.8200        38
    61.8400        26
    61.8600        18
    61.8800        20
    61.9000        22
    61.9200        22
    61.9400        18
    61.9600        18
    61.9800        30
    62.0000        30
    62.0200        22
    62.0400        28
    62.0600        16
    62.0800        22
    62.1000        30
    62.1200        32
    62.1400        32
    62.1600        28
    62.1800        24
    62.2000        26
    62.2200        24
    62.2400        22
    62.2600        32
    62.2800        26
    62.3000        34
    62.3200        28
    62.3400        24
    62.3600        24
    62.3800        20
    62.4000        36
    62.4200        30
    62.4400        26
    62.4600        32
    62.4800        30
    62.5000        26
    62.5200        18
    62.5400        24
    62.5600        22
    62.5800        26
    62.6000        30
    62.6200        20
    62.6400        18
    62.6600        20
    62.6800        20
    62.7000        26
    62.7200        28
    62.7400        24
    62.7600        24
    62.7800        28
    62.8000        24
    62.8200        32
    62.8400        26
    62.8600        28
    62.8800        24
    62.9000        26
    62.9200        26
    62.9400        28
    62.9600        28
    62.9800        32
    63.0000        28
    63.0200        28
    63.0400        36
    63.0600        30
    63.0800        22
    63.1000        16
    63.1200        26
    63.1400        32
    63.1600        34
    63.1800        30
    63.2000        18
    63.2200        26
    63.2400        20
    63.2600        28
    63.2800        28
    63.3000        34
    63.3200        38
    63.3400        30
    63.3600        32
    63.3800        32
    63.4000        26
    63.4200        20
    63.4400        34
    63.4600        28
    63.4800        22
    63.5000        18
    63.5200        34
    63.5400        32
    63.5600        28
    63.5800        38
    63.6000        34
    63.6200        22
    63.6400        30
    63.6600        32
    63.6800        32
    63.7000        32
    63.7200        24
    63.7400        24
    63.7600        28
    63.7800        28
    63.8000        24
    63.8200        36
    63.8400        24
    63.8600        26
    63.8800        18
    63.9000        32
    63.9200        32
    63.9400        26
    63.9600        24
    63.9800        34
    64.0000        36
    64.0200        30
    64.0400        30
    64.0600        34
    64.0800        26
    64.1000        48
    64.1200        42
    64.1400        28
    64.1600        20
    64.1800        30
    64.2000        30
    64.2200        38
    64.2400        26
    64.2600        28
    64.2800        32
    64.3000        28
    64.3200        42
    64.3400        56
    64.3600        40
    64.3800        54
    64.4000        76
    64.4200       118
    64.4400       280
    64.4600       460
    64.4800       548
    64.5000       496
    64.5200       304
    64.5400       128
    64.5600       114
    64.5800        92
    64.6000       108
    64.6200       176
    64.6400       254
    64.6600       298
    64.6800       222
    64.7000       174
    64.7200       104
    64.7400        58
    64.7600        54
    64.7800        30
    64.8000        32
    64.8200        42
    64.8400        38
    64.8600        24
    64.8800        22
    64.9000        28
    64.9200        30
    64.9400        34
    64.9600        32
    64.9800        22
    65.0000        30
