/////////////////////////////////////////////////////////////////////////////////
/// Profile Data Ascii Dump (XRD)                                             ///
/////////////////////////////////////////////////////////////////////////////////

  Group     : Swayze
  Data      : WS483
  File Name : WS483.RAW

# Profile Datafile
          comment             = Grossularite 
          date & time         = 08-04-09 06:49:21 

# Measurement Condition
    X-ray tube
          target              = Cu 
          voltage             = 40.0 (kV)
          current             = 30.0 (mA)
    Slits
          divergence slit     = 2.00000 (deg) 
          scatter slit        = 2.00000 (deg) 
          receiving slit      = 0.15000 (mm)  
    Scanning
          drive axis          = Theta-2Theta 
          scan range          =    4.000 -   65.000 
          scan mode           = Continuous Scan 
          scan speed          =   2.0000 (deg/min) 
          sampling pitch      =   0.0200 (deg) 
          preset time         =   0.60 (sec) 

# Data      [ Total No. = 3051 ]
  <2Theta>   <   I   >
     4.0000       164
     4.0200       178
     4.0400       170
     4.0600       170
     4.0800       178
     4.1000       166
     4.1200       206
     4.1400       194
     4.1600       190
     4.1800       160
     4.2000       134
     4.2200       202
     4.2400       168
     4.2600       178
     4.2800       166
     4.3000       198
     4.3200       184
     4.3400       152
     4.3600       170
     4.3800       164
     4.4000       180
     4.4200       166
     4.4400       182
     4.4600       180
     4.4800       152
     4.5000       148
     4.5200       146
     4.5400       158
     4.5600       190
     4.5800       142
     4.6000       164
     4.6200       182
     4.6400       186
     4.6600       166
     4.6800       166
     4.7000       158
     4.7200       160
     4.7400       158
     4.7600       170
     4.7800       138
     4.8000       156
     4.8200       172
     4.8400       194
     4.8600       150
     4.8800       184
     4.9000       158
     4.9200       170
     4.9400       154
     4.9600       168
     4.9800       166
     5.0000       166
     5.0200       172
     5.0400       154
     5.0600       164
     5.0800       164
     5.1000       164
     5.1200       166
     5.1400       174
     5.1600       168
     5.1800       164
     5.2000       142
     5.2200       144
     5.2400       152
     5.2600       148
     5.2800       178
     5.3000       152
     5.3200       158
     5.3400       164
     5.3600       174
     5.3800       164
     5.4000       160
     5.4200       182
     5.4400       180
     5.4600       164
     5.4800       156
     5.5000       164
     5.5200       178
     5.5400       146
     5.5600       138
     5.5800       186
     5.6000       170
     5.6200       156
     5.6400       180
     5.6600       178
     5.6800       144
     5.7000       188
     5.7200       174
     5.7400       166
     5.7600       158
     5.7800       172
     5.8000       178
     5.8200       156
     5.8400       162
     5.8600       170
     5.8800       136
     5.9000       146
     5.9200       168
     5.9400       158
     5.9600       152
     5.9800       162
     6.0000       144
     6.0200       138
     6.0400       162
     6.0600       160
     6.0800       144
     6.1000       178
     6.1200       142
     6.1400       168
     6.1600       162
     6.1800       132
     6.2000       142
     6.2200       150
     6.2400       134
     6.2600       154
     6.2800       150
     6.3000       168
     6.3200       126
     6.3400       170
     6.3600       146
     6.3800       154
     6.4000       146
     6.4200       152
     6.4400       144
     6.4600       142
     6.4800       154
     6.5000       146
     6.5200       138
     6.5400       138
     6.5600       138
     6.5800       126
     6.6000       128
     6.6200       112
     6.6400       134
     6.6600       154
     6.6800       130
     6.7000       120
     6.7200       102
     6.7400       132
     6.7600       128
     6.7800       134
     6.8000       136
     6.8200       114
     6.8400       124
     6.8600       136
     6.8800       140
     6.9000       156
     6.9200       134
     6.9400       134
     6.9600       120
     6.9800       128
     7.0000       120
     7.0200       120
     7.0400       124
     7.0600       116
     7.0800       112
     7.1000       148
     7.1200       124
     7.1400        92
     7.1600       136
     7.1800       118
     7.2000       110
     7.2200       112
     7.2400       120
     7.2600       122
     7.2800       102
     7.3000       136
     7.3200       112
     7.3400        98
     7.3600       116
     7.3800       114
     7.4000       112
     7.4200       114
     7.4400        98
     7.4600       110
     7.4800       102
     7.5000       114
     7.5200       116
     7.5400       138
     7.5600        98
     7.5800       102
     7.6000       106
     7.6200        98
     7.6400       102
     7.6600       116
     7.6800       112
     7.7000       114
     7.7200        98
     7.7400       122
     7.7600       112
     7.7800       124
     7.8000       112
     7.8200       114
     7.8400       102
     7.8600       122
     7.8800        96
     7.9000       112
     7.9200       106
     7.9400        90
     7.9600       112
     7.9800       112
     8.0000        92
     8.0200       124
     8.0400       112
     8.0600       106
     8.0800       106
     8.1000       100
     8.1200       106
     8.1400       114
     8.1600       106
     8.1800        98
     8.2000       102
     8.2200       114
     8.2400       112
     8.2600       100
     8.2800       114
     8.3000       116
     8.3200       120
     8.3400       106
     8.3600       132
     8.3800       124
     8.4000       130
     8.4200       132
     8.4400       108
     8.4600       130
     8.4800       120
     8.5000       108
     8.5200       116
     8.5400       128
     8.5600       118
     8.5800       132
     8.6000       126
     8.6200        98
     8.6400       102
     8.6600       106
     8.6800       136
     8.7000       128
     8.7200       100
     8.7400       108
     8.7600       130
     8.7800       120
     8.8000       124
     8.8200       144
     8.8400       110
     8.8600       108
     8.8800       112
     8.9000       108
     8.9200        88
     8.9400       130
     8.9600       108
     8.9800       106
     9.0000       112
     9.0200       114
     9.0400       106
     9.0600       116
     9.0800        86
     9.1000       150
     9.1200       122
     9.1400       132
     9.1600        98
     9.1800       102
     9.2000       124
     9.2200       128
     9.2400       116
     9.2600       110
     9.2800       126
     9.3000       146
     9.3200        98
     9.3400       104
     9.3600       116
     9.3800       118
     9.4000       124
     9.4200       104
     9.4400       116
     9.4600       134
     9.4800       120
     9.5000       102
     9.5200       106
     9.5400       114
     9.5600       116
     9.5800       106
     9.6000       116
     9.6200       106
     9.6400        98
     9.6600       102
     9.6800       112
     9.7000       124
     9.7200       110
     9.7400       108
     9.7600       118
     9.7800       104
     9.8000       114
     9.8200        92
     9.8400       114
     9.8600       116
     9.8800       116
     9.9000       118
     9.9200       110
     9.9400        96
     9.9600        96
     9.9800       116
    10.0000       102
    10.0200       108
    10.0400        96
    10.0600       114
    10.0800       102
    10.1000        96
    10.1200        98
    10.1400        92
    10.1600       106
    10.1800        96
    10.2000       116
    10.2200       126
    10.2400       100
    10.2600       122
    10.2800       102
    10.3000       106
    10.3200       102
    10.3400       106
    10.3600        90
    10.3800        98
    10.4000       102
    10.4200        90
    10.4400        86
    10.4600       104
    10.4800        84
    10.5000       104
    10.5200       116
    10.5400        98
    10.5600        92
    10.5800        94
    10.6000       104
    10.6200        88
    10.6400        98
    10.6600        88
    10.6800        82
    10.7000        94
    10.7200        94
    10.7400        96
    10.7600        78
    10.7800        88
    10.8000       124
    10.8200        84
    10.8400        80
    10.8600        86
    10.8800        92
    10.9000        86
    10.9200        90
    10.9400        98
    10.9600        82
    10.9800        90
    11.0000       104
    11.0200        98
    11.0400        76
    11.0600        76
    11.0800        84
    11.1000       100
    11.1200        74
    11.1400        88
    11.1600       104
    11.1800        84
    11.2000        98
    11.2200        78
    11.2400        94
    11.2600       108
    11.2800        76
    11.3000        88
    11.3200        84
    11.3400        74
    11.3600        98
    11.3800        98
    11.4000        76
    11.4200        70
    11.4400        92
    11.4600        90
    11.4800        90
    11.5000        78
    11.5200        78
    11.5400        84
    11.5600        68
    11.5800        96
    11.6000        68
    11.6200        82
    11.6400        82
    11.6600        86
    11.6800        64
    11.7000        70
    11.7200        74
    11.7400        84
    11.7600        86
    11.7800        84
    11.8000        98
    11.8200        90
    11.8400        78
    11.8600        78
    11.8800        86
    11.9000        92
    11.9200        84
    11.9400        80
    11.9600        76
    11.9800        78
    12.0000        66
    12.0200        82
    12.0400        78
    12.0600        98
    12.0800        64
    12.1000        82
    12.1200        96
    12.1400        80
    12.1600        74
    12.1800        58
    12.2000        78
    12.2200        78
    12.2400        68
    12.2600        84
    12.2800        70
    12.3000        84
    12.3200        74
    12.3400        80
    12.3600        74
    12.3800        78
    12.4000        66
    12.4200        92
    12.4400        72
    12.4600        58
    12.4800        70
    12.5000        58
    12.5200        70
    12.5400        76
    12.5600        64
    12.5800        76
    12.6000        66
    12.6200        74
    12.6400        74
    12.6600        72
    12.6800        78
    12.7000        76
    12.7200        76
    12.7400        68
    12.7600        74
    12.7800        74
    12.8000        64
    12.8200        66
    12.8400        68
    12.8600        56
    12.8800        74
    12.9000        70
    12.9200        60
    12.9400        70
    12.9600        60
    12.9800        68
    13.0000        72
    13.0200        70
    13.0400        64
    13.0600        70
    13.0800        80
    13.1000        76
    13.1200        66
    13.1400        82
    13.1600        70
    13.1800        80
    13.2000        80
    13.2200        68
    13.2400        76
    13.2600        74
    13.2800        70
    13.3000        66
    13.3200        64
    13.3400        72
    13.3600        68
    13.3800        66
    13.4000        82
    13.4200        66
    13.4400        60
    13.4600        74
    13.4800        74
    13.5000        46
    13.5200        82
    13.5400        56
    13.5600        52
    13.5800        64
    13.6000        78
    13.6200        58
    13.6400        72
    13.6600        60
    13.6800        64
    13.7000        58
    13.7200        56
    13.7400        68
    13.7600        70
    13.7800        56
    13.8000        64
    13.8200        62
    13.8400        66
    13.8600        64
    13.8800        54
    13.9000        62
    13.9200        76
    13.9400        64
    13.9600        62
    13.9800        74
    14.0000        50
    14.0200        44
    14.0400        62
    14.0600        68
    14.0800        64
    14.1000        54
    14.1200        58
    14.1400        72
    14.1600        62
    14.1800        48
    14.2000        70
    14.2200        66
    14.2400        54
    14.2600        70
    14.2800        58
    14.3000        64
    14.3200        62
    14.3400        50
    14.3600        66
    14.3800        64
    14.4000        56
    14.4200        64
    14.4400        62
    14.4600        56
    14.4800        58
    14.5000        58
    14.5200        46
    14.5400        54
    14.5600        54
    14.5800        64
    14.6000        70
    14.6200        70
    14.6400        42
    14.6600        64
    14.6800        60
    14.7000        44
    14.7200        44
    14.7400        56
    14.7600        64
    14.7800        62
    14.8000        62
    14.8200        54
    14.8400        52
    14.8600        60
    14.8800        36
    14.9000        58
    14.9200        54
    14.9400        50
    14.9600        48
    14.9800        62
    15.0000        66
    15.0200        68
    15.0400        52
    15.0600        38
    15.0800        72
    15.1000        64
    15.1200        60
    15.1400        54
    15.1600        56
    15.1800        60
    15.2000        58
    15.2200        46
    15.2400        66
    15.2600        42
    15.2800        56
    15.3000        58
    15.3200        52
    15.3400        50
    15.3600        56
    15.3800        68
    15.4000        56
    15.4200        38
    15.4400        52
    15.4600        56
    15.4800        48
    15.5000        76
    15.5200        56
    15.5400        54
    15.5600        60
    15.5800        60
    15.6000        52
    15.6200        60
    15.6400        54
    15.6600        50
    15.6800        52
    15.7000        44
    15.7200        44
    15.7400        62
    15.7600        40
    15.7800        66
    15.8000        48
    15.8200        46
    15.8400        48
    15.8600        56
    15.8800        54
    15.9000        48
    15.9200        56
    15.9400        62
    15.9600        36
    15.9800        56
    16.0000        62
    16.0200        44
    16.0400        48
    16.0600        36
    16.0800        38
    16.1000        50
    16.1200        38
    16.1400        44
    16.1600        50
    16.1800        58
    16.2000        52
    16.2200        40
    16.2400        54
    16.2600        48
    16.2800        56
    16.3000        66
    16.3200        54
    16.3400        48
    16.3600        54
    16.3800        54
    16.4000        44
    16.4200        50
    16.4400        42
    16.4600        66
    16.4800        52
    16.5000        44
    16.5200        48
    16.5400        60
    16.5600        62
    16.5800        52
    16.6000        54
    16.6200        54
    16.6400        62
    16.6600        62
    16.6800        58
    16.7000        46
    16.7200        62
    16.7400        56
    16.7600        56
    16.7800        48
    16.8000        62
    16.8200        36
    16.8400        46
    16.8600        50
    16.8800        62
    16.9000        52
    16.9200        38
    16.9400        64
    16.9600        62
    16.9800        48
    17.0000        44
    17.0200        44
    17.0400        44
    17.0600        64
    17.0800        40
    17.1000        40
    17.1200        48
    17.1400        40
    17.1600        64
    17.1800        48
    17.2000        46
    17.2200        46
    17.2400        58
    17.2600        50
    17.2800        48
    17.3000        48
    17.3200        46
    17.3400        46
    17.3600        72
    17.3800        48
    17.4000        58
    17.4200        56
    17.4400        42
    17.4600        38
    17.4800        48
    17.5000        60
    17.5200        38
    17.5400        48
    17.5600        52
    17.5800        52
    17.6000        38
    17.6200        56
    17.6400        54
    17.6600        60
    17.6800        58
    17.7000        54
    17.7200        44
    17.7400        52
    17.7600        40
    17.7800        52
    17.8000        48
    17.8200        52
    17.8400        42
    17.8600        42
    17.8800        58
    17.9000        48
    17.9200        50
    17.9400        54
    17.9600        52
    17.9800        40
    18.0000        46
    18.0200        36
    18.0400        46
    18.0600        50
    18.0800        50
    18.1000        52
    18.1200        48
    18.1400        38
    18.1600        34
    18.1800        48
    18.2000        54
    18.2200        50
    18.2400        62
    18.2600        48
    18.2800        36
    18.3000        68
    18.3200        56
    18.3400        54
    18.3600        46
    18.3800        48
    18.4000        40
    18.4200        38
    18.4400        46
    18.4600        34
    18.4800        48
    18.5000        46
    18.5200        50
    18.5400        52
    18.5600        46
    18.5800        32
    18.6000        36
    18.6200        42
    18.6400        40
    18.6600        44
    18.6800        54
    18.7000        40
    18.7200        42
    18.7400        52
    18.7600        44
    18.7800        52
    18.8000        42
    18.8200        38
    18.8400        54
    18.8600        52
    18.8800        50
    18.9000        44
    18.9200        38
    18.9400        44
    18.9600        52
    18.9800        42
    19.0000        50
    19.0200        40
    19.0400        56
    19.0600        52
    19.0800        46
    19.1000        52
    19.1200        46
    19.1400        50
    19.1600        46
    19.1800        44
    19.2000        32
    19.2200        60
    19.2400        30
    19.2600        42
    19.2800        48
    19.3000        44
    19.3200        38
    19.3400        44
    19.3600        54
    19.3800        40
    19.4000        46
    19.4200        42
    19.4400        36
    19.4600        54
    19.4800        50
    19.5000        48
    19.5200        46
    19.5400        34
    19.5600        50
    19.5800        38
    19.6000        32
    19.6200        46
    19.6400        40
    19.6600        36
    19.6800        48
    19.7000        44
    19.7200        40
    19.7400        52
    19.7600        32
    19.7800        60
    19.8000        30
    19.8200        42
    19.8400        46
    19.8600        44
    19.8800        44
    19.9000        42
    19.9200        42
    19.9400        54
    19.9600        50
    19.9800        42
    20.0000        40
    20.0200        48
    20.0400        38
    20.0600        42
    20.0800        38
    20.1000        38
    20.1200        42
    20.1400        50
    20.1600        32
    20.1800        48
    20.2000        32
    20.2200        40
    20.2400        32
    20.2600        32
    20.2800        40
    20.3000        42
    20.3200        38
    20.3400        44
    20.3600        28
    20.3800        40
    20.4000        56
    20.4200        42
    20.4400        36
    20.4600        48
    20.4800        28
    20.5000        42
    20.5200        56
    20.5400        46
    20.5600        38
    20.5800        42
    20.6000        38
    20.6200        42
    20.6400        36
    20.6600        40
    20.6800        36
    20.7000        38
    20.7200        44
    20.7400        44
    20.7600        42
    20.7800        46
    20.8000        44
    20.8200        36
    20.8400        48
    20.8600        38
    20.8800        32
    20.9000        30
    20.9200        38
    20.9400        46
    20.9600        32
    20.9800        34
    21.0000        42
    21.0200        44
    21.0400        36
    21.0600        36
    21.0800        46
    21.1000        50
    21.1200        42
    21.1400        42
    21.1600        44
    21.1800        40
    21.2000        36
    21.2200        30
    21.2400        48
    21.2600        48
    21.2800        44
    21.3000        50
    21.3200        38
    21.3400        28
    21.3600        36
    21.3800        42
    21.4000        28
    21.4200        46
    21.4400        32
    21.4600        34
    21.4800        32
    21.5000        36
    21.5200        36
    21.5400        32
    21.5600        44
    21.5800        32
    21.6000        30
    21.6200        28
    21.6400        46
    21.6600        44
    21.6800        32
    21.7000        40
    21.7200        40
    21.7400        34
    21.7600        34
    21.7800        44
    21.8000        30
    21.8200        44
    21.8400        34
    21.8600        32
    21.8800        46
    21.9000        28
    21.9200        38
    21.9400        46
    21.9600        28
    21.9800        42
    22.0000        46
    22.0200        40
    22.0400        40
    22.0600        50
    22.0800        26
    22.1000        42
    22.1200        36
    22.1400        44
    22.1600        38
    22.1800        40
    22.2000        24
    22.2200        32
    22.2400        32
    22.2600        34
    22.2800        34
    22.3000        46
    22.3200        34
    22.3400        26
    22.3600        38
    22.3800        38
    22.4000        48
    22.4200        42
    22.4400        36
    22.4600        36
    22.4800        34
    22.5000        44
    22.5200        52
    22.5400        36
    22.5600        50
    22.5800        36
    22.6000        24
    22.6200        28
    22.6400        32
    22.6600        38
    22.6800        36
    22.7000        32
    22.7200        42
    22.7400        40
    22.7600        32
    22.7800        38
    22.8000        34
    22.8200        36
    22.8400        36
    22.8600        36
    22.8800        40
    22.9000        30
    22.9200        42
    22.9400        44
    22.9600        32
    22.9800        30
    23.0000        46
    23.0200        54
    23.0400        32
    23.0600        34
    23.0800        32
    23.1000        30
    23.1200        34
    23.1400        36
    23.1600        34
    23.1800        44
    23.2000        40
    23.2200        22
    23.2400        32
    23.2600        34
    23.2800        26
    23.3000        26
    23.3200        32
    23.3400        36
    23.3600        42
    23.3800        36
    23.4000        34
    23.4200        34
    23.4400        32
    23.4600        36
    23.4800        28
    23.5000        24
    23.5200        28
    23.5400        42
    23.5600        34
    23.5800        40
    23.6000        24
    23.6200        30
    23.6400        34
    23.6600        28
    23.6800        38
    23.7000        34
    23.7200        28
    23.7400        48
    23.7600        38
    23.7800        30
    23.8000        38
    23.8200        38
    23.8400        18
    23.8600        38
    23.8800        38
    23.9000        32
    23.9200        34
    23.9400        34
    23.9600        42
    23.9800        40
    24.0000        28
    24.0200        42
    24.0400        38
    24.0600        34
    24.0800        24
    24.1000        30
    24.1200        28
    24.1400        40
    24.1600        30
    24.1800        24
    24.2000        30
    24.2200        32
    24.2400        30
    24.2600        36
    24.2800        38
    24.3000        28
    24.3200        48
    24.3400        28
    24.3600        34
    24.3800        26
    24.4000        22
    24.4200        24
    24.4400        30
    24.4600        34
    24.4800        28
    24.5000        30
    24.5200        28
    24.5400        38
    24.5600        34
    24.5800        32
    24.6000        38
    24.6200        24
    24.6400        30
    24.6600        32
    24.6800        30
    24.7000        26
    24.7200        28
    24.7400        36
    24.7600        20
    24.7800        22
    24.8000        20
    24.8200        38
    24.8400        22
    24.8600        40
    24.8800        22
    24.9000        34
    24.9200        34
    24.9400        28
    24.9600        22
    24.9800        24
    25.0000        36
    25.0200        26
    25.0400        32
    25.0600        26
    25.0800        28
    25.1000        34
    25.1200        34
    25.1400        24
    25.1600        30
    25.1800        30
    25.2000        28
    25.2200        26
    25.2400        36
    25.2600        34
    25.2800        34
    25.3000        30
    25.3200        36
    25.3400        26
    25.3600        24
    25.3800        30
    25.4000        26
    25.4200        34
    25.4400        28
    25.4600        20
    25.4800        30
    25.5000        24
    25.5200        24
    25.5400        36
    25.5600        36
    25.5800        28
    25.6000        30
    25.6200        32
    25.6400        34
    25.6600        24
    25.6800        28
    25.7000        36
    25.7200        22
    25.7400        34
    25.7600        20
    25.7800        20
    25.8000        32
    25.8200        38
    25.8400        30
    25.8600        32
    25.8800        30
    25.9000        30
    25.9200        28
    25.9400        38
    25.9600        22
    25.9800        28
    26.0000        32
    26.0200        20
    26.0400        28
    26.0600        30
    26.0800        24
    26.1000        18
    26.1200        22
    26.1400        24
    26.1600        32
    26.1800        26
    26.2000        28
    26.2200        28
    26.2400        36
    26.2600        22
    26.2800        28
    26.3000        30
    26.3200        22
    26.3400        22
    26.3600        20
    26.3800        28
    26.4000        30
    26.4200        32
    26.4400        22
    26.4600        26
    26.4800        36
    26.5000        34
    26.5200        28
    26.5400        38
    26.5600        26
    26.5800        26
    26.6000        28
    26.6200        30
    26.6400        34
    26.6600        30
    26.6800        26
    26.7000        34
    26.7200        38
    26.7400        36
    26.7600        34
    26.7800        22
    26.8000        32
    26.8200        32
    26.8400        38
    26.8600        30
    26.8800        38
    26.9000        26
    26.9200        16
    26.9400        26
    26.9600        38
    26.9800        34
    27.0000        28
    27.0200        32
    27.0400        26
    27.0600        32
    27.0800        34
    27.1000        40
    27.1200        26
    27.1400        26
    27.1600        20
    27.1800        36
    27.2000        24
    27.2200        26
    27.2400        28
    27.2600        26
    27.2800        24
    27.3000        28
    27.3200        28
    27.3400        22
    27.3600        32
    27.3800        36
    27.4000        28
    27.4200        44
    27.4400        26
    27.4600        20
    27.4800        38
    27.5000        22
    27.5200        38
    27.5400        32
    27.5600        32
    27.5800        38
    27.6000        20
    27.6200        32
    27.6400        28
    27.6600        20
    27.6800        28
    27.7000        28
    27.7200        26
    27.7400        16
    27.7600        30
    27.7800        20
    27.8000        28
    27.8200        24
    27.8400        36
    27.8600        26
    27.8800        22
    27.9000        32
    27.9200        44
    27.9400        40
    27.9600        32
    27.9800        42
    28.0000        32
    28.0200        38
    28.0400        34
    28.0600        44
    28.0800        34
    28.1000        32
    28.1200        36
    28.1400        34
    28.1600        28
    28.1800        30
    28.2000        30
    28.2200        20
    28.2400        32
    28.2600        40
    28.2800        40
    28.3000        28
    28.3200        28
    28.3400        30
    28.3600        30
    28.3800        20
    28.4000        26
    28.4200        24
    28.4400        28
    28.4600        16
    28.4800        28
    28.5000        26
    28.5200        28
    28.5400        28
    28.5600        22
    28.5800        32
    28.6000        42
    28.6200        36
    28.6400        26
    28.6600        28
    28.6800        28
    28.7000        28
    28.7200        34
    28.7400        22
    28.7600        36
    28.7800        26
    28.8000        26
    28.8200        20
    28.8400        22
    28.8600        28
    28.8800        38
    28.9000        30
    28.9200        26
    28.9400        26
    28.9600        28
    28.9800        30
    29.0000        24
    29.0200        22
    29.0400        36
    29.0600        20
    29.0800        28
    29.1000        28
    29.1200        24
    29.1400        22
    29.1600        26
    29.1800        24
    29.2000        38
    29.2200        38
    29.2400        26
    29.2600        42
    29.2800        34
    29.3000        46
    29.3200        58
    29.3400        46
    29.3600        38
    29.3800        44
    29.4000        36
    29.4200        42
    29.4400        36
    29.4600        16
    29.4800        40
    29.5000        34
    29.5200        40
    29.5400        26
    29.5600        50
    29.5800        32
    29.6000        34
    29.6200        38
    29.6400        44
    29.6600        44
    29.6800        38
    29.7000        44
    29.7200        60
    29.7400        60
    29.7600        70
    29.7800        60
    29.8000        74
    29.8200       116
    29.8400       162
    29.8600       226
    29.8800       346
    29.9000       396
    29.9200       512
    29.9400       730
    29.9600       836
    29.9800       924
    30.0000       976
    30.0200       870
    30.0400       838
    30.0600       664
    30.0800       506
    30.1000       356
    30.1200       284
    30.1400       164
    30.1600       118
    30.1800        72
    30.2000        58
    30.2200        48
    30.2400        80
    30.2600        54
    30.2800        56
    30.3000        44
    30.3200        50
    30.3400        48
    30.3600        42
    30.3800        30
    30.4000        30
    30.4200        30
    30.4400        34
    30.4600        32
    30.4800        30
    30.5000        28
    30.5200        28
    30.5400        24
    30.5600        26
    30.5800        28
    30.6000        22
    30.6200        28
    30.6400        26
    30.6600        20
    30.6800        24
    30.7000        32
    30.7200        26
    30.7400        34
    30.7600        28
    30.7800        20
    30.8000        24
    30.8200        18
    30.8400        22
    30.8600        36
    30.8800        24
    30.9000        26
    30.9200        22
    30.9400        26
    30.9600        22
    30.9800        24
    31.0000        18
    31.0200        18
    31.0400        18
    31.0600        28
    31.0800        24
    31.1000        18
    31.1200        34
    31.1400        22
    31.1600        22
    31.1800        26
    31.2000        34
    31.2200        30
    31.2400        30
    31.2600        24
    31.2800        22
    31.3000        30
    31.3200        34
    31.3400        24
    31.3600        26
    31.3800        34
    31.4000        32
    31.4200        34
    31.4400        22
    31.4600        28
    31.4800        16
    31.5000        30
    31.5200        24
    31.5400        42
    31.5600        28
    31.5800        22
    31.6000        28
    31.6200        28
    31.6400        34
    31.6600        32
    31.6800        34
    31.7000        18
    31.7200        26
    31.7400        18
    31.7600        30
    31.7800        38
    31.8000        26
    31.8200        28
    31.8400        18
    31.8600        26
    31.8800        32
    31.9000        22
    31.9200        38
    31.9400        24
    31.9600        32
    31.9800        26
    32.0000        30
    32.0200        28
    32.0400        28
    32.0600        22
    32.0800        26
    32.1000        38
    32.1200        30
    32.1400        34
    32.1600        30
    32.1800        32
    32.2000        30
    32.2200        32
    32.2400        28
    32.2600        30
    32.2800        36
    32.3000        28
    32.3200        20
    32.3400        22
    32.3600        24
    32.3800        32
    32.4000        24
    32.4200        30
    32.4400        34
    32.4600        32
    32.4800        22
    32.5000        20
    32.5200        28
    32.5400        32
    32.5600        22
    32.5800        32
    32.6000        28
    32.6200        38
    32.6400        18
    32.6600        28
    32.6800        30
    32.7000        24
    32.7200        30
    32.7400        26
    32.7600        28
    32.7800        32
    32.8000        28
    32.8200        40
    32.8400        32
    32.8600        30
    32.8800        32
    32.9000        32
    32.9200        36
    32.9400        28
    32.9600        24
    32.9800        28
    33.0000        28
    33.0200        36
    33.0400        34
    33.0600        24
    33.0800        34
    33.1000        28
    33.1200        38
    33.1400        34
    33.1600        46
    33.1800        34
    33.2000        42
    33.2200        48
    33.2400        56
    33.2600        50
    33.2800        60
    33.3000        84
    33.3200        86
    33.3400        90
    33.3600       106
    33.3800       116
    33.4000       138
    33.4200       156
    33.4400       218
    33.4600       258
    33.4800       428
    33.5000       560
    33.5200       826
    33.5400       902
    33.5600      1012
    33.5800      1236
    33.6000      1558
    33.6200      2146
    33.6400      2290
    33.6600      1900
    33.6800      1636
    33.7000      1536
    33.7200      1362
    33.7400      1110
    33.7600       782
    33.7800       522
    33.8000       398
    33.8200       224
    33.8400       182
    33.8600       132
    33.8800       100
    33.9000        86
    33.9200        68
    33.9400        72
    33.9600        60
    33.9800        54
    34.0000        48
    34.0200        48
    34.0400        40
    34.0600        42
    34.0800        34
    34.1000        34
    34.1200        28
    34.1400        30
    34.1600        22
    34.1800        18
    34.2000        34
    34.2200        26
    34.2400        32
    34.2600        32
    34.2800        30
    34.3000        24
    34.3200        30
    34.3400        28
    34.3600        34
    34.3800        28
    34.4000        22
    34.4200        26
    34.4400        34
    34.4600        18
    34.4800        28
    34.5000        16
    34.5200        16
    34.5400        30
    34.5600        34
    34.5800        30
    34.6000        26
    34.6200        24
    34.6400        20
    34.6600        34
    34.6800        22
    34.7000        32
    34.7200        34
    34.7400        20
    34.7600        18
    34.7800        24
    34.8000        30
    34.8200        30
    34.8400        30
    34.8600        24
    34.8800        22
    34.9000        20
    34.9200        24
    34.9400        24
    34.9600        38
    34.9800        34
    35.0000        28
    35.0200        40
    35.0400        40
    35.0600        26
    35.0800        38
    35.1000        36
    35.1200        42
    35.1400        30
    35.1600        46
    35.1800        58
    35.2000        68
    35.2200        74
    35.2400        88
    35.2600       130
    35.2800       194
    35.3000       224
    35.3200       220
    35.3400       212
    35.3600       266
    35.3800       244
    35.4000       222
    35.4200       152
    35.4400       164
    35.4600       118
    35.4800        88
    35.5000        58
    35.5200        54
    35.5400        38
    35.5600        30
    35.5800        24
    35.6000        28
    35.6200        32
    35.6400        32
    35.6600        26
    35.6800        22
    35.7000        28
    35.7200        26
    35.7400        24
    35.7600        36
    35.7800        38
    35.8000        34
    35.8200        28
    35.8400        28
    35.8600        24
    35.8800        26
    35.9000        18
    35.9200        22
    35.9400        28
    35.9600        24
    35.9800        32
    36.0000        22
    36.0200        24
    36.0400        20
    36.0600        26
    36.0800        16
    36.1000        22
    36.1200        24
    36.1400        18
    36.1600        20
    36.1800        20
    36.2000        26
    36.2200        18
    36.2400        22
    36.2600        24
    36.2800        32
    36.3000        36
    36.3200        28
    36.3400        18
    36.3600        22
    36.3800        28
    36.4000        18
    36.4200        26
    36.4400        28
    36.4600        32
    36.4800        34
    36.5000        40
    36.5200        24
    36.5400        26
    36.5600        30
    36.5800        34
    36.6000        30
    36.6200        34
    36.6400        38
    36.6600        42
    36.6800        54
    36.7000        64
    36.7200        70
    36.7400       132
    36.7600       106
    36.7800       106
    36.8000       104
    36.8200        96
    36.8400       124
    36.8600       182
    36.8800       186
    36.9000       242
    36.9200       286
    36.9400       290
    36.9600       392
    36.9800       496
    37.0000       520
    37.0200       426
    37.0400       298
    37.0600       298
    37.0800       262
    37.1000       234
    37.1200       152
    37.1400       108
    37.1600        70
    37.1800        74
    37.2000        38
    37.2200        50
    37.2400        54
    37.2600        30
    37.2800        42
    37.3000        36
    37.3200        24
    37.3400        32
    37.3600        34
    37.3800        40
    37.4000        26
    37.4200        20
    37.4400        26
    37.4600        22
    37.4800        22
    37.5000        36
    37.5200        26
    37.5400        28
    37.5600        30
    37.5800        24
    37.6000        22
    37.6200        16
    37.6400        22
    37.6600        30
    37.6800        18
    37.7000        22
    37.7200        22
    37.7400        32
    37.7600        24
    37.7800        26
    37.8000        32
    37.8200        16
    37.8400        10
    37.8600        20
    37.8800        22
    37.9000        26
    37.9200        22
    37.9400        20
    37.9600        18
    37.9800        18
    38.0000        18
    38.0200        26
    38.0400        20
    38.0600        16
    38.0800        28
    38.1000        22
    38.1200        14
    38.1400        22
    38.1600        30
    38.1800        30
    38.2000        32
    38.2200        32
    38.2400        16
    38.2600        42
    38.2800        32
    38.3000        48
    38.3200        44
    38.3400        44
    38.3600        56
    38.3800        62
    38.4000        76
    38.4200        80
    38.4400       110
    38.4600       204
    38.4800       284
    38.5000       266
    38.5200       304
    38.5400       372
    38.5600       424
    38.5800       392
    38.6000       350
    38.6200       236
    38.6400       218
    38.6600       224
    38.6800       190
    38.7000       132
    38.7200       100
    38.7400        56
    38.7600        54
    38.7800        50
    38.8000        30
    38.8200        26
    38.8400        24
    38.8600        40
    38.8800        30
    38.9000        24
    38.9200        30
    38.9400        28
    38.9600        24
    38.9800        26
    39.0000        24
    39.0200        20
    39.0400        24
    39.0600        30
    39.0800        18
    39.1000        18
    39.1200        24
    39.1400        14
    39.1600        18
    39.1800        34
    39.2000        34
    39.2200        20
    39.2400        22
    39.2600        24
    39.2800        28
    39.3000        32
    39.3200        22
    39.3400        26
    39.3600        24
    39.3800        20
    39.4000        22
    39.4200        28
    39.4400        12
    39.4600        18
    39.4800        28
    39.5000        24
    39.5200        16
    39.5400        20
    39.5600        28
    39.5800        22
    39.6000        18
    39.6200        22
    39.6400        20
    39.6600        26
    39.6800        22
    39.7000        20
    39.7200        22
    39.7400        22
    39.7600        18
    39.7800        18
    39.8000        18
    39.8200        18
    39.8400        22
    39.8600        22
    39.8800        20
    39.9000        24
    39.9200        22
    39.9400        24
    39.9600        12
    39.9800        18
    40.0000        32
    40.0200        20
    40.0400        22
    40.0600        16
    40.0800        12
    40.1000        16
    40.1200        22
    40.1400        16
    40.1600        24
    40.1800        20
    40.2000        18
    40.2200        30
    40.2400        20
    40.2600        20
    40.2800        30
    40.3000        36
    40.3200        26
    40.3400        16
    40.3600        34
    40.3800        30
    40.4000        16
    40.4200        20
    40.4400        20
    40.4600        26
    40.4800        20
    40.5000        12
    40.5200         8
    40.5400        24
    40.5600        22
    40.5800        18
    40.6000        20
    40.6200        10
    40.6400        20
    40.6600        14
    40.6800        18
    40.7000        14
    40.7200        26
    40.7400        12
    40.7600        22
    40.7800        16
    40.8000        20
    40.8200        24
    40.8400        32
    40.8600        32
    40.8800        24
    40.9000        26
    40.9200        26
    40.9400        24
    40.9600        20
    40.9800        24
    41.0000        22
    41.0200        22
    41.0400        30
    41.0600        22
    41.0800        16
    41.1000        26
    41.1200        16
    41.1400        22
    41.1600        16
    41.1800        32
    41.2000        22
    41.2200        28
    41.2400        22
    41.2600        28
    41.2800        36
    41.3000        38
    41.3200        32
    41.3400        46
    41.3600        48
    41.3800        62
    41.4000        70
    41.4200        78
    41.4400       116
    41.4600       160
    41.4800       220
    41.5000       280
    41.5200       410
    41.5400       518
    41.5600       562
    41.5800       554
    41.6000       382
    41.6200       322
    41.6400       348
    41.6600       338
    41.6800       296
    41.7000       200
    41.7200       138
    41.7400        92
    41.7600        52
    41.7800        50
    41.8000        38
    41.8200        36
    41.8400        40
    41.8600        38
    41.8800        24
    41.9000        22
    41.9200        30
    41.9400        28
    41.9600        28
    41.9800        22
    42.0000        26
    42.0200         8
    42.0400        18
    42.0600        18
    42.0800        22
    42.1000        20
    42.1200        26
    42.1400        22
    42.1600        34
    42.1800        20
    42.2000        16
    42.2200        36
    42.2400        30
    42.2600        16
    42.2800        22
    42.3000        28
    42.3200        24
    42.3400        24
    42.3600        16
    42.3800        26
    42.4000        18
    42.4200        20
    42.4400        12
    42.4600        14
    42.4800        32
    42.5000        16
    42.5200        24
    42.5400        26
    42.5600        18
    42.5800        12
    42.6000        20
    42.6200        24
    42.6400        16
    42.6600        16
    42.6800        20
    42.7000        26
    42.7200        20
    42.7400        22
    42.7600        26
    42.7800        18
    42.8000        24
    42.8200        30
    42.8400        30
    42.8600        42
    42.8800        42
    42.9000        38
    42.9200        52
    42.9400        96
    42.9600       144
    42.9800       152
    43.0000        98
    43.0200        90
    43.0400        66
    43.0600        82
    43.0800        94
    43.1000        94
    43.1200        62
    43.1400        64
    43.1600        42
    43.1800        42
    43.2000        32
    43.2200        42
    43.2400        20
    43.2600        32
    43.2800        38
    43.3000        24
    43.3200        30
    43.3400        26
    43.3600        24
    43.3800        22
    43.4000        24
    43.4200        30
    43.4400        18
    43.4600        16
    43.4800        22
    43.5000        22
    43.5200        16
    43.5400        10
    43.5600        16
    43.5800        22
    43.6000        18
    43.6200        26
    43.6400        18
    43.6600        14
    43.6800        22
    43.7000        22
    43.7200        16
    43.7400        18
    43.7600        16
    43.7800        22
    43.8000        24
    43.8200        20
    43.8400        24
    43.8600        22
    43.8800        14
    43.9000        14
    43.9200        24
    43.9400        16
    43.9600        28
    43.9800        28
    44.0000        22
    44.0200        14
    44.0400        18
    44.0600        20
    44.0800        22
    44.1000        12
    44.1200        16
    44.1400        28
    44.1600        14
    44.1800        24
    44.2000        28
    44.2200        20
    44.2400        16
    44.2600         8
    44.2800        14
    44.3000        22
    44.3200        28
    44.3400        20
    44.3600        26
    44.3800        14
    44.4000        18
    44.4200        24
    44.4400        30
    44.4600        16
    44.4800        14
    44.5000        18
    44.5200        20
    44.5400        22
    44.5600        12
    44.5800        18
    44.6000        16
    44.6200        18
    44.6400        22
    44.6600        14
    44.6800        14
    44.7000        24
    44.7200        22
    44.7400        22
    44.7600        20
    44.7800        12
    44.8000        30
    44.8200        22
    44.8400        20
    44.8600        26
    44.8800        16
    44.9000        26
    44.9200        26
    44.9400        14
    44.9600        22
    44.9800        24
    45.0000        20
    45.0200        18
    45.0400        22
    45.0600        16
    45.0800        20
    45.1000        28
    45.1200        20
    45.1400        16
    45.1600        20
    45.1800        22
    45.2000        20
    45.2200        18
    45.2400        12
    45.2600        14
    45.2800        20
    45.3000        20
    45.3200        16
    45.3400        16
    45.3600        18
    45.3800        22
    45.4000        16
    45.4200        24
    45.4400        18
    45.4600        20
    45.4800        22
    45.5000        20
    45.5200        18
    45.5400        26
    45.5600        26
    45.5800        14
    45.6000        20
    45.6200        16
    45.6400        20
    45.6600        26
    45.6800        20
    45.7000        24
    45.7200        24
    45.7400        10
    45.7600        22
    45.7800        20
    45.8000        26
    45.8200        30
    45.8400        24
    45.8600        16
    45.8800        20
    45.9000        22
    45.9200        20
    45.9400        24
    45.9600        20
    45.9800        20
    46.0000        16
    46.0200        16
    46.0400        20
    46.0600        16
    46.0800        14
    46.1000        18
    46.1200        22
    46.1400        28
    46.1600        22
    46.1800        16
    46.2000        20
    46.2200        24
    46.2400        20
    46.2600        18
    46.2800        26
    46.3000        20
    46.3200        26
    46.3400        20
    46.3600        18
    46.3800        24
    46.4000        18
    46.4200        20
    46.4400        28
    46.4600        22
    46.4800        22
    46.5000        24
    46.5200        16
    46.5400        18
    46.5600        24
    46.5800        12
    46.6000        16
    46.6200        22
    46.6400        28
    46.6600        34
    46.6800        20
    46.7000        24
    46.7200        36
    46.7400        26
    46.7600        32
    46.7800        38
    46.8000        42
    46.8200        36
    46.8400        50
    46.8600        40
    46.8800        74
    46.9000        60
    46.9200        94
    46.9400       104
    46.9600       182
    46.9800       248
    47.0000       314
    47.0200       374
    47.0400       422
    47.0600       428
    47.0800       476
    47.1000       400
    47.1200       384
    47.1400       324
    47.1600       268
    47.1800       268
    47.2000       248
    47.2200       188
    47.2400       162
    47.2600       120
    47.2800       100
    47.3000        48
    47.3200        54
    47.3400        40
    47.3600        34
    47.3800        36
    47.4000        40
    47.4200        34
    47.4400        34
    47.4600        18
    47.4800        14
    47.5000        24
    47.5200        14
    47.5400        22
    47.5600        20
    47.5800        36
    47.6000        22
    47.6200        16
    47.6400        18
    47.6600        18
    47.6800        24
    47.7000        24
    47.7200        24
    47.7400        12
    47.7600         8
    47.7800        16
    47.8000        24
    47.8200        16
    47.8400        16
    47.8600        22
    47.8800        26
    47.9000        18
    47.9200        16
    47.9400        18
    47.9600        30
    47.9800        18
    48.0000        14
    48.0200        24
    48.0400        18
    48.0600        24
    48.0800        24
    48.1000        20
    48.1200        20
    48.1400        24
    48.1600        24
    48.1800        26
    48.2000        32
    48.2200        26
    48.2400        24
    48.2600        24
    48.2800        38
    48.3000        40
    48.3200        46
    48.3400        58
    48.3600        50
    48.3800        64
    48.4000        42
    48.4200        42
    48.4400        44
    48.4600        40
    48.4800        44
    48.5000        42
    48.5200        32
    48.5400        32
    48.5600        28
    48.5800        12
    48.6000        14
    48.6200        18
    48.6400        16
    48.6600        22
    48.6800         8
    48.7000        20
    48.7200        24
    48.7400        18
    48.7600        28
    48.7800        18
    48.8000        26
    48.8200        18
    48.8400        12
    48.8600        14
    48.8800        26
    48.9000         8
    48.9200        18
    48.9400        12
    48.9600        12
    48.9800        22
    49.0000        22
    49.0200        24
    49.0400        18
    49.0600        28
    49.0800        24
    49.1000        18
    49.1200        24
    49.1400        16
    49.1600        18
    49.1800        16
    49.2000        18
    49.2200        22
    49.2400        24
    49.2600        16
    49.2800        14
    49.3000        10
    49.3200        16
    49.3400        18
    49.3600        20
    49.3800        20
    49.4000        26
    49.4200        22
    49.4400        22
    49.4600        18
    49.4800        16
    49.5000        22
    49.5200        16
    49.5400        20
    49.5600        16
    49.5800        12
    49.6000        28
    49.6200        12
    49.6400        14
    49.6600        18
    49.6800        18
    49.7000        20
    49.7200        14
    49.7400        22
    49.7600        22
    49.7800        20
    49.8000        20
    49.8200        20
    49.8400        18
    49.8600        26
    49.8800        16
    49.9000        18
    49.9200        18
    49.9400        18
    49.9600        26
    49.9800        12
    50.0000        20
    50.0200        34
    50.0400        14
    50.0600        20
    50.0800        24
    50.1000        16
    50.1200        20
    50.1400        28
    50.1600        22
    50.1800        26
    50.2000        16
    50.2200        24
    50.2400        22
    50.2600        18
    50.2800        10
    50.3000        16
    50.3200        10
    50.3400        16
    50.3600        16
    50.3800        16
    50.4000        22
    50.4200        18
    50.4400        28
    50.4600        20
    50.4800        26
    50.5000        20
    50.5200        20
    50.5400        18
    50.5600        16
    50.5800        16
    50.6000        18
    50.6200        20
    50.6400        22
    50.6600        20
    50.6800        18
    50.7000        14
    50.7200        20
    50.7400        30
    50.7600        20
    50.7800        16
    50.8000        20
    50.8200        12
    50.8400        22
    50.8600        14
    50.8800        18
    50.9000        14
    50.9200        16
    50.9400        22
    50.9600        18
    50.9800        22
    51.0000        16
    51.0200        20
    51.0400        18
    51.0600        14
    51.0800        20
    51.1000        20
    51.1200        16
    51.1400        24
    51.1600        28
    51.1800        24
    51.2000        24
    51.2200        18
    51.2400        20
    51.2600        20
    51.2800        18
    51.3000        18
    51.3200        16
    51.3400        16
    51.3600        22
    51.3800        22
    51.4000        18
    51.4200        20
    51.4400        14
    51.4600        22
    51.4800        14
    51.5000        22
    51.5200        22
    51.5400        22
    51.5600        20
    51.5800        20
    51.6000        24
    51.6200        24
    51.6400        20
    51.6600        20
    51.6800        22
    51.7000        18
    51.7200        16
    51.7400        24
    51.7600        12
    51.7800        24
    51.8000        20
    51.8200        24
    51.8400        20
    51.8600        26
    51.8800        18
    51.9000        20
    51.9200        20
    51.9400        30
    51.9600        24
    51.9800        24
    52.0000        18
    52.0200        20
    52.0400        20
    52.0600        24
    52.0800        18
    52.1000        28
    52.1200        26
    52.1400        24
    52.1600        22
    52.1800        16
    52.2000        30
    52.2200        18
    52.2400        20
    52.2600        22
    52.2800        14
    52.3000        26
    52.3200        22
    52.3400        18
    52.3600        22
    52.3800        24
    52.4000        20
    52.4200        16
    52.4400        16
    52.4600        24
    52.4800        36
    52.5000        20
    52.5200        16
    52.5400        28
    52.5600        20
    52.5800        22
    52.6000        16
    52.6200        26
    52.6400        22
    52.6600        26
    52.6800        24
    52.7000        20
    52.7200        28
    52.7400        26
    52.7600        20
    52.7800        24
    52.8000        14
    52.8200        28
    52.8400        18
    52.8600        22
    52.8800        30
    52.9000        20
    52.9200        20
    52.9400        28
    52.9600        14
    52.9800        30
    53.0000        24
    53.0200        30
    53.0400        40
    53.0600        54
    53.0800        40
    53.1000        56
    53.1200        54
    53.1400        60
    53.1600        76
    53.1800       100
    53.2000       138
    53.2200       262
    53.2400       336
    53.2600       316
    53.2800       378
    53.3000       484
    53.3200       604
    53.3400       784
    53.3600       736
    53.3800       720
    53.4000       640
    53.4200       572
    53.4400       482
    53.4600       468
    53.4800       440
    53.5000       368
    53.5200       334
    53.5400       286
    53.5600       222
    53.5800       178
    53.6000       114
    53.6200        58
    53.6400        44
    53.6600        48
    53.6800        34
    53.7000        38
    53.7200        34
    53.7400        24
    53.7600        26
    53.7800        26
    53.8000        30
    53.8200        26
    53.8400        30
    53.8600        34
    53.8800        28
    53.9000        26
    53.9200        30
    53.9400        20
    53.9600        20
    53.9800        24
    54.0000        22
    54.0200        34
    54.0400        24
    54.0600        28
    54.0800        20
    54.1000        36
    54.1200        14
    54.1400        24
    54.1600        38
    54.1800        30
    54.2000        22
    54.2200        18
    54.2400        26
    54.2600        16
    54.2800        24
    54.3000        20
    54.3200        22
    54.3400        24
    54.3600        28
    54.3800        24
    54.4000        14
    54.4200        22
    54.4400        36
    54.4600        22
    54.4800        26
    54.5000        32
    54.5200        42
    54.5400        38
    54.5600        30
    54.5800        30
    54.6000        30
    54.6200        38
    54.6400        32
    54.6600        34
    54.6800        30
    54.7000        34
    54.7200        14
    54.7400        40
    54.7600        32
    54.7800        24
    54.8000        24
    54.8200        28
    54.8400        30
    54.8600        24
    54.8800        28
    54.9000        28
    54.9200        22
    54.9400        30
    54.9600        24
    54.9800        20
    55.0000        20
    55.0200        18
    55.0400        30
    55.0600        36
    55.0800        26
    55.1000        34
    55.1200        26
    55.1400        24
    55.1600        30
    55.1800        32
    55.2000        24
    55.2200        28
    55.2400        22
    55.2600        40
    55.2800        28
    55.3000        34
    55.3200        36
    55.3400        44
    55.3600        44
    55.3800        46
    55.4000        38
    55.4200        54
    55.4400        56
    55.4600        50
    55.4800        80
    55.5000        92
    55.5200       102
    55.5400        92
    55.5600       148
    55.5800       190
    55.6000       332
    55.6200       422
    55.6400       442
    55.6600       594
    55.6800       748
    55.7000       822
    55.7200       782
    55.7400       612
    55.7600       534
    55.7800       492
    55.8000       420
    55.8200       398
    55.8400       458
    55.8600       406
    55.8800       332
    55.9000       262
    55.9200       204
    55.9400       172
    55.9600        96
    55.9800        80
    56.0000        66
    56.0200        54
    56.0400        46
    56.0600        30
    56.0800        30
    56.1000        36
    56.1200        32
    56.1400        36
    56.1600        22
    56.1800        20
    56.2000        24
    56.2200        20
    56.2400        24
    56.2600        24
    56.2800        36
    56.3000        18
    56.3200        22
    56.3400        22
    56.3600        20
    56.3800        24
    56.4000        14
    56.4200        26
    56.4400        26
    56.4600        30
    56.4800        28
    56.5000        28
    56.5200        24
    56.5400        26
    56.5600        26
    56.5800        12
    56.6000        24
    56.6200        26
    56.6400        34
    56.6600        26
    56.6800        24
    56.7000        32
    56.7200        26
    56.7400        28
    56.7600        36
    56.7800        38
    56.8000        32
    56.8200        34
    56.8400        38
    56.8600        68
    56.8800        58
    56.9000        42
    56.9200        42
    56.9400        36
    56.9600        32
    56.9800        38
    57.0000        42
    57.0200        44
    57.0400        36
    57.0600        42
    57.0800        34
    57.1000        34
    57.1200        30
    57.1400        20
    57.1600        22
    57.1800        26
    57.2000        26
    57.2200        20
    57.2400        26
    57.2600        32
    57.2800        38
    57.3000        30
    57.3200        32
    57.3400        32
    57.3600        30
    57.3800        26
    57.4000        20
    57.4200        42
    57.4400        32
    57.4600        40
    57.4800        48
    57.5000        30
    57.5200        20
    57.5400        34
    57.5600        44
    57.5800        42
    57.6000        40
    57.6200        44
    57.6400        44
    57.6600        46
    57.6800        46
    57.7000        66
    57.7200        56
    57.7400        58
    57.7600        58
    57.7800        54
    57.8000        60
    57.8200        78
    57.8400       110
    57.8600       118
    57.8800       180
    57.9000       262
    57.9200       392
    57.9400       614
    57.9600       824
    57.9800       996
    58.0000      1064
    58.0200      1014
    58.0400       808
    58.0600       640
    58.0800       496
    58.1000       462
    58.1200       526
    58.1400       514
    58.1600       570
    58.1800       486
    58.2000       352
    58.2200       294
    58.2400       204
    58.2600       110
    58.2800        82
    58.3000        60
    58.3200        56
    58.3400        46
    58.3600        48
    58.3800        40
    58.4000        36
    58.4200        32
    58.4400        30
    58.4600        28
    58.4800        52
    58.5000        34
    58.5200        22
    58.5400        26
    58.5600        26
    58.5800        24
    58.6000        28
    58.6200        28
    58.6400        26
    58.6600        24
    58.6800        22
    58.7000        20
    58.7200        20
    58.7400        28
    58.7600        30
    58.7800        22
    58.8000        22
    58.8200        20
    58.8400        28
    58.8600        16
    58.8800        24
    58.9000        30
    58.9200        20
    58.9400        28
    58.9600        20
    58.9800        14
    59.0000        12
    59.0200        18
    59.0400        30
    59.0600        20
    59.0800        16
    59.1000        26
    59.1200        14
    59.1400        16
    59.1600        22
    59.1800        26
    59.2000        18
    59.2200        18
    59.2400        18
    59.2600        20
    59.2800        16
    59.3000        20
    59.3200        14
    59.3400        18
    59.3600        20
    59.3800        14
    59.4000        22
    59.4200        14
    59.4400        20
    59.4600        20
    59.4800        28
    59.5000        22
    59.5200        16
    59.5400        16
    59.5600        18
    59.5800        18
    59.6000        14
    59.6200        30
    59.6400        22
    59.6600        24
    59.6800        24
    59.7000        22
    59.7200        22
    59.7400        24
    59.7600        16
    59.7800        18
    59.8000        18
    59.8200        20
    59.8400        20
    59.8600        24
    59.8800        18
    59.9000        26
    59.9200        20
    59.9400        20
    59.9600        16
    59.9800        12
    60.0000        26
    60.0200        14
    60.0400        26
    60.0600        18
    60.0800        28
    60.1000        20
    60.1200        16
    60.1400        14
    60.1600        12
    60.1800        22
    60.2000        18
    60.2200        18
    60.2400        30
    60.2600        20
    60.2800        18
    60.3000        20
    60.3200        32
    60.3400        22
    60.3600        18
    60.3800        20
    60.4000        14
    60.4200        18
    60.4400        18
    60.4600        16
    60.4800        22
    60.5000        24
    60.5200        28
    60.5400        16
    60.5600        20
    60.5800        16
    60.6000        16
    60.6200        18
    60.6400        18
    60.6600        18
    60.6800        22
    60.7000        20
    60.7200        26
    60.7400        18
    60.7600        24
    60.7800        22
    60.8000        18
    60.8200        18
    60.8400        28
    60.8600        24
    60.8800        20
    60.9000        20
    60.9200        20
    60.9400        18
    60.9600        18
    60.9800        24
    61.0000        22
    61.0200        20
    61.0400        28
    61.0600        18
    61.0800        14
    61.1000        22
    61.1200        20
    61.1400        12
    61.1600        20
    61.1800        14
    61.2000        18
    61.2200        36
    61.2400        26
    61.2600        34
    61.2800        24
    61.3000        42
    61.3200        30
    61.3400        30
    61.3600        38
    61.3800        42
    61.4000        24
    61.4200        26
    61.4400        38
    61.4600        32
    61.4800        24
    61.5000        22
    61.5200        16
    61.5400        28
    61.5600        36
    61.5800        14
    61.6000        18
    61.6200        24
    61.6400        16
    61.6600        20
    61.6800        20
    61.7000        20
    61.7200        20
    61.7400        20
    61.7600        16
    61.7800        20
    61.8000        12
    61.8200        16
    61.8400        18
    61.8600        20
    61.8800        28
    61.9000        20
    61.9200        16
    61.9400        12
    61.9600        18
    61.9800        14
    62.0000        26
    62.0200        18
    62.0400        30
    62.0600        16
    62.0800        20
    62.1000        28
    62.1200        20
    62.1400        18
    62.1600        20
    62.1800        20
    62.2000        26
    62.2200        22
    62.2400        28
    62.2600        18
    62.2800        36
    62.3000        52
    62.3200        58
    62.3400        64
    62.3600       102
    62.3800       102
    62.4000        94
    62.4200       112
    62.4400       106
    62.4600        96
    62.4800       106
    62.5000        62
    62.5200        80
    62.5400        90
    62.5600        70
    62.5800        66
    62.6000        74
    62.6200        66
    62.6400        52
    62.6600        44
    62.6800        60
    62.7000        46
    62.7200        44
    62.7400        34
    62.7600        34
    62.7800        38
    62.8000        26
    62.8200        26
    62.8400        18
    62.8600        18
    62.8800        18
    62.9000        12
    62.9200        30
    62.9400        24
    62.9600        22
    62.9800        20
    63.0000        20
    63.0200        22
    63.0400        26
    63.0600        12
    63.0800        24
    63.1000        12
    63.1200        14
    63.1400        16
    63.1600        26
    63.1800        18
    63.2000        32
    63.2200        24
    63.2400        20
    63.2600        16
    63.2800        24
    63.3000        28
    63.3200        16
    63.3400        16
    63.3600        20
    63.3800        28
    63.4000        34
    63.4200        24
    63.4400        24
    63.4600        38
    63.4800        26
    63.5000        42
    63.5200        56
    63.5400        38
    63.5600        46
    63.5800        40
    63.6000        42
    63.6200        38
    63.6400        28
    63.6600        24
    63.6800        26
    63.7000        32
    63.7200        22
    63.7400        28
    63.7600        22
    63.7800        22
    63.8000        30
    63.8200        26
    63.8400        24
    63.8600        18
    63.8800        20
    63.9000        22
    63.9200        16
    63.9400        22
    63.9600        20
    63.9800        18
    64.0000        10
    64.0200        14
    64.0400        16
    64.0600        16
    64.0800        18
    64.1000        26
    64.1200        22
    64.1400        18
    64.1600        24
    64.1800        16
    64.2000        24
    64.2200        16
    64.2400        16
    64.2600        16
    64.2800        24
    64.3000        16
    64.3200        22
    64.3400        12
    64.3600        18
    64.3800        24
    64.4000        12
    64.4200        12
    64.4400        18
    64.4600        22
    64.4800        18
    64.5000        22
    64.5200        20
    64.5400        32
    64.5600         8
    64.5800        24
    64.6000        22
    64.6200        18
    64.6400        16
    64.6600        18
    64.6800        28
    64.7000        18
    64.7200        14
    64.7400        22
    64.7600        30
    64.7800        22
    64.8000        24
    64.8200        20
    64.8400        12
    64.8600        24
    64.8800        26
    64.9000        22
    64.9200        20
    64.9400        16
    64.9600        16
    64.9800        20
    65.0000        18
