/////////////////////////////////////////////////////////////////////////////////
/// Profile Data Ascii Dump (XRD)                                             ///
/////////////////////////////////////////////////////////////////////////////////

  Group     : Swayze
  Data      : WS661
  File Name : WS661.RAW

# Profile Datafile
          comment             = Annite-ferrous biotite 
          date & time         = 08-04-08 08:59:07 

# Measurement Condition
    X-ray tube
          target              = Cu 
          voltage             = 40.0 (kV)
          current             = 30.0 (mA)
    Slits
          divergence slit     = 2.00000 (deg) 
          scatter slit        = 2.00000 (deg) 
          receiving slit      = 0.15000 (mm)  
    Scanning
          drive axis          = Theta-2Theta 
          scan range          =    4.000 -   65.000 
          scan mode           = Continuous Scan 
          scan speed          =   2.0000 (deg/min) 
          sampling pitch      =   0.0200 (deg) 
          preset time         =   0.60 (sec) 

# Data      [ Total No. = 3051 ]
  <2Theta>   <   I   >
     4.0000       178
     4.0200       198
     4.0400       190
     4.0600       220
     4.0800       206
     4.1000       218
     4.1200       180
     4.1400       186
     4.1600       152
     4.1800       194
     4.2000       176
     4.2200       174
     4.2400       216
     4.2600       180
     4.2800       202
     4.3000       200
     4.3200       202
     4.3400       194
     4.3600       178
     4.3800       178
     4.4000       162
     4.4200       166
     4.4400       186
     4.4600       180
     4.4800       178
     4.5000       164
     4.5200       152
     4.5400       186
     4.5600       148
     4.5800       150
     4.6000       174
     4.6200       144
     4.6400       166
     4.6600       146
     4.6800       152
     4.7000       156
     4.7200       170
     4.7400       178
     4.7600       158
     4.7800       168
     4.8000       158
     4.8200       176
     4.8400       170
     4.8600       172
     4.8800       160
     4.9000       174
     4.9200       168
     4.9400       158
     4.9600       158
     4.9800       160
     5.0000       178
     5.0200       142
     5.0400       162
     5.0600       152
     5.0800       174
     5.1000       170
     5.1200       184
     5.1400       168
     5.1600       164
     5.1800       168
     5.2000       152
     5.2200       152
     5.2400       156
     5.2600       182
     5.2800       160
     5.3000       154
     5.3200       170
     5.3400       160
     5.3600       162
     5.3800       172
     5.4000       166
     5.4200       156
     5.4400       170
     5.4600       174
     5.4800       134
     5.5000       142
     5.5200       146
     5.5400       150
     5.5600       160
     5.5800       168
     5.6000       160
     5.6200       160
     5.6400       142
     5.6600       132
     5.6800       160
     5.7000       140
     5.7200       152
     5.7400       170
     5.7600       146
     5.7800       172
     5.8000       144
     5.8200       132
     5.8400       144
     5.8600       138
     5.8800       138
     5.9000       162
     5.9200       150
     5.9400       138
     5.9600       160
     5.9800       164
     6.0000       150
     6.0200       156
     6.0400       164
     6.0600       154
     6.0800       150
     6.1000       148
     6.1200       176
     6.1400       162
     6.1600       142
     6.1800       156
     6.2000       136
     6.2200       152
     6.2400       158
     6.2600       132
     6.2800       146
     6.3000       154
     6.3200       190
     6.3400       152
     6.3600       142
     6.3800       144
     6.4000       148
     6.4200       148
     6.4400       152
     6.4600       154
     6.4800       140
     6.5000       150
     6.5200       138
     6.5400       132
     6.5600       140
     6.5800       126
     6.6000       142
     6.6200       136
     6.6400       142
     6.6600       120
     6.6800       138
     6.7000       136
     6.7200       132
     6.7400       148
     6.7600       120
     6.7800       140
     6.8000       142
     6.8200       156
     6.8400       118
     6.8600       122
     6.8800       116
     6.9000       118
     6.9200       126
     6.9400       152
     6.9600       124
     6.9800       128
     7.0000       126
     7.0200       132
     7.0400       118
     7.0600       120
     7.0800       120
     7.1000       130
     7.1200       116
     7.1400       132
     7.1600       134
     7.1800       130
     7.2000       138
     7.2200       124
     7.2400       118
     7.2600       126
     7.2800       130
     7.3000       120
     7.3200       132
     7.3400       116
     7.3600       130
     7.3800       114
     7.4000       158
     7.4200       114
     7.4400       126
     7.4600       154
     7.4800       148
     7.5000       140
     7.5200       126
     7.5400       132
     7.5600       148
     7.5800       144
     7.6000       138
     7.6200       146
     7.6400       128
     7.6600       134
     7.6800       144
     7.7000       138
     7.7200       130
     7.7400       152
     7.7600       134
     7.7800       136
     7.8000       188
     7.8200       160
     7.8400       164
     7.8600       214
     7.8800       198
     7.9000       190
     7.9200       178
     7.9400       172
     7.9600       190
     7.9800       190
     8.0000       184
     8.0200       182
     8.0400       186
     8.0600       190
     8.0800       198
     8.1000       214
     8.1200       236
     8.1400       206
     8.1600       214
     8.1800       262
     8.2000       294
     8.2200       264
     8.2400       330
     8.2600       328
     8.2800       384
     8.3000       420
     8.3200       464
     8.3400       496
     8.3600       614
     8.3800       728
     8.4000       732
     8.4200       872
     8.4400       930
     8.4600      1038
     8.4800      1210
     8.5000      1314
     8.5200      1450
     8.5400      1782
     8.5600      2120
     8.5800      2460
     8.6000      2838
     8.6200      3492
     8.6400      4316
     8.6600      5836
     8.6800      8262
     8.7000     11294
     8.7200     15064
     8.7400     16798
     8.7600     15388
     8.7800     11400
     8.8000      7082
     8.8200      4278
     8.8400      2312
     8.8600      1262
     8.8800       782
     8.9000       596
     8.9200       536
     8.9400       470
     8.9600       416
     8.9800       450
     9.0000       390
     9.0200       320
     9.0400       274
     9.0600       238
     9.0800       204
     9.1000       166
     9.1200       154
     9.1400       130
     9.1600       122
     9.1800       134
     9.2000       144
     9.2200       140
     9.2400       124
     9.2600       128
     9.2800       138
     9.3000       122
     9.3200       124
     9.3400        98
     9.3600       124
     9.3800       136
     9.4000       122
     9.4200       120
     9.4400       100
     9.4600       116
     9.4800       142
     9.5000       138
     9.5200       118
     9.5400       126
     9.5600       116
     9.5800       132
     9.6000       104
     9.6200       104
     9.6400       106
     9.6600       126
     9.6800       110
     9.7000       102
     9.7200       112
     9.7400       140
     9.7600        92
     9.7800       112
     9.8000       110
     9.8200       104
     9.8400       116
     9.8600       102
     9.8800       102
     9.9000       110
     9.9200       104
     9.9400       118
     9.9600       120
     9.9800       118
    10.0000       100
    10.0200        98
    10.0400       112
    10.0600       122
    10.0800        94
    10.1000        98
    10.1200       108
    10.1400       106
    10.1600        98
    10.1800       128
    10.2000        92
    10.2200        98
    10.2400       102
    10.2600       102
    10.2800       114
    10.3000       118
    10.3200       108
    10.3400       104
    10.3600       108
    10.3800        98
    10.4000        84
    10.4200        98
    10.4400       106
    10.4600       106
    10.4800        86
    10.5000       100
    10.5200        80
    10.5400        96
    10.5600       114
    10.5800        86
    10.6000       110
    10.6200        82
    10.6400        94
    10.6600       112
    10.6800        94
    10.7000       106
    10.7200       104
    10.7400        84
    10.7600       104
    10.7800        90
    10.8000        80
    10.8200        98
    10.8400        82
    10.8600        90
    10.8800       106
    10.9000        90
    10.9200        72
    10.9400        94
    10.9600        86
    10.9800        98
    11.0000        96
    11.0200        84
    11.0400        94
    11.0600        80
    11.0800        80
    11.1000       100
    11.1200        82
    11.1400        76
    11.1600        88
    11.1800        84
    11.2000        68
    11.2200        98
    11.2400        84
    11.2600        94
    11.2800        80
    11.3000        84
    11.3200        74
    11.3400        74
    11.3600        80
    11.3800        90
    11.4000        80
    11.4200        78
    11.4400        80
    11.4600       102
    11.4800        90
    11.5000        98
    11.5200        74
    11.5400        92
    11.5600        76
    11.5800        84
    11.6000        82
    11.6200        80
    11.6400        66
    11.6600        62
    11.6800        90
    11.7000        72
    11.7200        70
    11.7400       116
    11.7600        82
    11.7800        76
    11.8000        76
    11.8200        84
    11.8400        94
    11.8600        74
    11.8800        78
    11.9000        80
    11.9200        60
    11.9400       104
    11.9600        74
    11.9800        70
    12.0000        86
    12.0200        84
    12.0400        82
    12.0600        76
    12.0800        96
    12.1000        60
    12.1200        82
    12.1400        76
    12.1600        86
    12.1800       100
    12.2000       100
    12.2200        72
    12.2400        74
    12.2600        70
    12.2800        80
    12.3000        82
    12.3200        86
    12.3400        84
    12.3600        66
    12.3800        72
    12.4000        88
    12.4200        74
    12.4400        72
    12.4600        78
    12.4800        96
    12.5000        60
    12.5200        82
    12.5400        62
    12.5600        88
    12.5800        78
    12.6000        72
    12.6200        62
    12.6400        78
    12.6600        66
    12.6800        60
    12.7000        66
    12.7200        90
    12.7400        88
    12.7600        78
    12.7800        60
    12.8000        80
    12.8200        80
    12.8400        74
    12.8600        78
    12.8800        74
    12.9000        58
    12.9200        82
    12.9400        90
    12.9600        82
    12.9800        72
    13.0000        74
    13.0200        76
    13.0400        78
    13.0600        84
    13.0800        68
    13.1000        68
    13.1200        68
    13.1400        66
    13.1600        82
    13.1800        70
    13.2000        86
    13.2200        56
    13.2400        82
    13.2600        56
    13.2800        78
    13.3000        68
    13.3200        66
    13.3400        70
    13.3600        78
    13.3800        84
    13.4000        78
    13.4200        82
    13.4400        62
    13.4600        56
    13.4800        66
    13.5000        72
    13.5200        64
    13.5400        74
    13.5600        82
    13.5800        80
    13.6000        74
    13.6200        78
    13.6400        74
    13.6600        76
    13.6800        70
    13.7000        62
    13.7200        66
    13.7400        70
    13.7600        68
    13.7800        58
    13.8000        60
    13.8200        66
    13.8400        60
    13.8600        60
    13.8800        62
    13.9000        60
    13.9200        62
    13.9400        60
    13.9600        78
    13.9800        52
    14.0000        56
    14.0200        62
    14.0400        80
    14.0600        58
    14.0800        58
    14.1000        48
    14.1200        76
    14.1400        72
    14.1600        54
    14.1800        66
    14.2000        52
    14.2200        66
    14.2400        72
    14.2600        72
    14.2800        44
    14.3000        64
    14.3200        62
    14.3400        78
    14.3600        56
    14.3800        54
    14.4000        66
    14.4200        70
    14.4400        64
    14.4600        54
    14.4800        58
    14.5000        54
    14.5200        48
    14.5400        48
    14.5600        68
    14.5800        56
    14.6000        60
    14.6200        70
    14.6400        70
    14.6600        64
    14.6800        70
    14.7000        56
    14.7200        62
    14.7400        54
    14.7600        58
    14.7800        66
    14.8000        60
    14.8200        58
    14.8400        60
    14.8600        44
    14.8800        66
    14.9000        76
    14.9200        46
    14.9400        60
    14.9600        64
    14.9800        64
    15.0000        50
    15.0200        52
    15.0400        64
    15.0600        46
    15.0800        54
    15.1000        60
    15.1200        58
    15.1400        46
    15.1600        58
    15.1800        86
    15.2000        60
    15.2200        76
    15.2400        64
    15.2600        52
    15.2800        62
    15.3000        72
    15.3200        52
    15.3400        62
    15.3600        72
    15.3800        64
    15.4000        58
    15.4200        54
    15.4400        60
    15.4600        70
    15.4800        62
    15.5000        64
    15.5200        64
    15.5400        62
    15.5600        48
    15.5800        62
    15.6000        64
    15.6200        66
    15.6400        54
    15.6600        52
    15.6800        58
    15.7000        52
    15.7200        76
    15.7400        74
    15.7600        66
    15.7800        48
    15.8000        70
    15.8200        50
    15.8400        70
    15.8600        58
    15.8800        64
    15.9000        76
    15.9200        60
    15.9400        60
    15.9600        60
    15.9800        56
    16.0000        44
    16.0200        56
    16.0400        72
    16.0600        62
    16.0800        62
    16.1000        62
    16.1200        54
    16.1400        56
    16.1600        62
    16.1800        54
    16.2000        54
    16.2200        62
    16.2400        58
    16.2600        66
    16.2800        52
    16.3000        64
    16.3200        38
    16.3400        58
    16.3600        74
    16.3800        50
    16.4000        56
    16.4200        70
    16.4400        68
    16.4600        56
    16.4800        60
    16.5000        72
    16.5200        58
    16.5400        54
    16.5600        56
    16.5800        50
    16.6000        58
    16.6200        70
    16.6400        50
    16.6600        78
    16.6800        74
    16.7000        68
    16.7200        64
    16.7400        66
    16.7600        68
    16.7800        64
    16.8000        48
    16.8200        70
    16.8400        80
    16.8600        72
    16.8800        66
    16.9000        60
    16.9200        52
    16.9400        72
    16.9600        68
    16.9800        66
    17.0000        68
    17.0200        66
    17.0400        80
    17.0600        76
    17.0800        72
    17.1000        72
    17.1200       100
    17.1400        80
    17.1600        88
    17.1800        92
    17.2000       108
    17.2200        80
    17.2400       100
    17.2600       118
    17.2800       144
    17.3000       154
    17.3200       170
    17.3400       162
    17.3600       194
    17.3800       212
    17.4000       248
    17.4200       294
    17.4400       384
    17.4600       442
    17.4800       584
    17.5000       748
    17.5200      1008
    17.5400      1282
    17.5600      1582
    17.5800      1756
    17.6000      1628
    17.6200      1328
    17.6400      1010
    17.6600       672
    17.6800       396
    17.7000       226
    17.7200       180
    17.7400       134
    17.7600       102
    17.7800       110
    17.8000        94
    17.8200        94
    17.8400        90
    17.8600        84
    17.8800        86
    17.9000        70
    17.9200        78
    17.9400        62
    17.9600        64
    17.9800        64
    18.0000        62
    18.0200        58
    18.0400        58
    18.0600        52
    18.0800        52
    18.1000        46
    18.1200        60
    18.1400        52
    18.1600        62
    18.1800        68
    18.2000        70
    18.2200        66
    18.2400        48
    18.2600        54
    18.2800        62
    18.3000        56
    18.3200        48
    18.3400        50
    18.3600        52
    18.3800        52
    18.4000        44
    18.4200        56
    18.4400        60
    18.4600        46
    18.4800        44
    18.5000        66
    18.5200        40
    18.5400        34
    18.5600        52
    18.5800        56
    18.6000        58
    18.6200        50
    18.6400        40
    18.6600        62
    18.6800        56
    18.7000        42
    18.7200        44
    18.7400        40
    18.7600        58
    18.7800        64
    18.8000        58
    18.8200        58
    18.8400        62
    18.8600        54
    18.8800        80
    18.9000        62
    18.9200        52
    18.9400        44
    18.9600        80
    18.9800        72
    19.0000        52
    19.0200        66
    19.0400        48
    19.0600        60
    19.0800        62
    19.1000        66
    19.1200        60
    19.1400        56
    19.1600        58
    19.1800        74
    19.2000        44
    19.2200        60
    19.2400        64
    19.2600        50
    19.2800        52
    19.3000        56
    19.3200        60
    19.3400        60
    19.3600        62
    19.3800        58
    19.4000        40
    19.4200        64
    19.4400        50
    19.4600        50
    19.4800        44
    19.5000        58
    19.5200        48
    19.5400        54
    19.5600        50
    19.5800        50
    19.6000        50
    19.6200        54
    19.6400        60
    19.6600        60
    19.6800        44
    19.7000        42
    19.7200        54
    19.7400        46
    19.7600        60
    19.7800        46
    19.8000        44
    19.8200        46
    19.8400        50
    19.8600        50
    19.8800        56
    19.9000        60
    19.9200        58
    19.9400        52
    19.9600        62
    19.9800        40
    20.0000        46
    20.0200        44
    20.0400        52
    20.0600        62
    20.0800        44
    20.1000        64
    20.1200        54
    20.1400        54
    20.1600        40
    20.1800        62
    20.2000        50
    20.2200        56
    20.2400        56
    20.2600        44
    20.2800        64
    20.3000        50
    20.3200        46
    20.3400        58
    20.3600        62
    20.3800        60
    20.4000        52
    20.4200        38
    20.4400        54
    20.4600        44
    20.4800        38
    20.5000        46
    20.5200        58
    20.5400        44
    20.5600        58
    20.5800        60
    20.6000        40
    20.6200        58
    20.6400        42
    20.6600        60
    20.6800        50
    20.7000        52
    20.7200        52
    20.7400        40
    20.7600        56
    20.7800        50
    20.8000        40
    20.8200        42
    20.8400        36
    20.8600        44
    20.8800        52
    20.9000        58
    20.9200        56
    20.9400        58
    20.9600        52
    20.9800        46
    21.0000        40
    21.0200        46
    21.0400        56
    21.0600        42
    21.0800        62
    21.1000        48
    21.1200        50
    21.1400        52
    21.1600        62
    21.1800        54
    21.2000        50
    21.2200        52
    21.2400        52
    21.2600        54
    21.2800        46
    21.3000        38
    21.3200        48
    21.3400        34
    21.3600        62
    21.3800        62
    21.4000        32
    21.4200        54
    21.4400        50
    21.4600        58
    21.4800        40
    21.5000        52
    21.5200        42
    21.5400        58
    21.5600        54
    21.5800        58
    21.6000        44
    21.6200        50
    21.6400        46
    21.6600        46
    21.6800        40
    21.7000        44
    21.7200        46
    21.7400        52
    21.7600        56
    21.7800        62
    21.8000        66
    21.8200        48
    21.8400        62
    21.8600        48
    21.8800        52
    21.9000        50
    21.9200        48
    21.9400        44
    21.9600        50
    21.9800        60
    22.0000        56
    22.0200        40
    22.0400        46
    22.0600        34
    22.0800        56
    22.1000        46
    22.1200        62
    22.1400        62
    22.1600        60
    22.1800        42
    22.2000        42
    22.2200        58
    22.2400        56
    22.2600        54
    22.2800        44
    22.3000        58
    22.3200        70
    22.3400        50
    22.3600        60
    22.3800        64
    22.4000        50
    22.4200        56
    22.4400        46
    22.4600        54
    22.4800        50
    22.5000        48
    22.5200        46
    22.5400        46
    22.5600        54
    22.5800        46
    22.6000        54
    22.6200        44
    22.6400        46
    22.6600        54
    22.6800        56
    22.7000        62
    22.7200        52
    22.7400        42
    22.7600        54
    22.7800        42
    22.8000        32
    22.8200        44
    22.8400        46
    22.8600        54
    22.8800        42
    22.9000        36
    22.9200        54
    22.9400        46
    22.9600        50
    22.9800        36
    23.0000        42
    23.0200        56
    23.0400        56
    23.0600        58
    23.0800        42
    23.1000        38
    23.1200        48
    23.1400        64
    23.1600        42
    23.1800        46
    23.2000        44
    23.2200        46
    23.2400        54
    23.2600        64
    23.2800        42
    23.3000        58
    23.3200        42
    23.3400        58
    23.3600        42
    23.3800        58
    23.4000        48
    23.4200        46
    23.4400        40
    23.4600        42
    23.4800        52
    23.5000        56
    23.5200        50
    23.5400        50
    23.5600        48
    23.5800        46
    23.6000        54
    23.6200        64
    23.6400        58
    23.6600        56
    23.6800        72
    23.7000        44
    23.7200        58
    23.7400        48
    23.7600        68
    23.7800        62
    23.8000        62
    23.8200        92
    23.8400        84
    23.8600        84
    23.8800       112
    23.9000       114
    23.9200       118
    23.9400        98
    23.9600        98
    23.9800        82
    24.0000        74
    24.0200        66
    24.0400        64
    24.0600        58
    24.0800        62
    24.1000        52
    24.1200        64
    24.1400        62
    24.1600        52
    24.1800        46
    24.2000        54
    24.2200        54
    24.2400        50
    24.2600        54
    24.2800        44
    24.3000        44
    24.3200        52
    24.3400        58
    24.3600        76
    24.3800        56
    24.4000        70
    24.4200        58
    24.4400        68
    24.4600        64
    24.4800        64
    24.5000        66
    24.5200        68
    24.5400        70
    24.5600        60
    24.5800        64
    24.6000        72
    24.6200        62
    24.6400        52
    24.6600        66
    24.6800        66
    24.7000        58
    24.7200        70
    24.7400        78
    24.7600        60
    24.7800        78
    24.8000        76
    24.8200        68
    24.8400        82
    24.8600        82
    24.8800        80
    24.9000        70
    24.9200        74
    24.9400        56
    24.9600        88
    24.9800        70
    25.0000        62
    25.0200        50
    25.0400        58
    25.0600        74
    25.0800        74
    25.1000        64
    25.1200        70
    25.1400        50
    25.1600        64
    25.1800        70
    25.2000        76
    25.2200        80
    25.2400        84
    25.2600        96
    25.2800       104
    25.3000        98
    25.3200       104
    25.3400       104
    25.3600       120
    25.3800       122
    25.4000       110
    25.4200        98
    25.4400       124
    25.4600       108
    25.4800       112
    25.5000       102
    25.5200       106
    25.5400       118
    25.5600       138
    25.5800       118
    25.6000       118
    25.6200       118
    25.6400       104
    25.6600       108
    25.6800       120
    25.7000       126
    25.7200       126
    25.7400       142
    25.7600       110
    25.7800       140
    25.8000       122
    25.8200       126
    25.8400       134
    25.8600       120
    25.8800       146
    25.9000       160
    25.9200       174
    25.9400       176
    25.9600       184
    25.9800       160
    26.0000       202
    26.0200       194
    26.0400       214
    26.0600       208
    26.0800       262
    26.1000       256
    26.1200       332
    26.1400       324
    26.1600       404
    26.1800       476
    26.2000       566
    26.2200       610
    26.2400       708
    26.2600       736
    26.2800       924
    26.3000      1088
    26.3200      1320
    26.3400      1646
    26.3600      2180
    26.3800      2650
    26.4000      3522
    26.4200      4772
    26.4400      6556
    26.4600      8714
    26.4800     11248
    26.5000     13516
    26.5200     15266
    26.5400     14962
    26.5600     13480
    26.5800     11026
    26.6000      8798
    26.6200      6564
    26.6400      4228
    26.6600      2710
    26.6800      1648
    26.7000      1100
    26.7200       748
    26.7400       642
    26.7600       526
    26.7800       444
    26.8000       390
    26.8200       318
    26.8400       342
    26.8600       256
    26.8800       246
    26.9000       196
    26.9200       156
    26.9400       164
    26.9600       158
    26.9800       132
    27.0000       130
    27.0200       122
    27.0400       120
    27.0600       132
    27.0800       124
    27.1000       128
    27.1200        94
    27.1400       106
    27.1600       104
    27.1800       100
    27.2000        94
    27.2200        84
    27.2400       112
    27.2600        84
    27.2800        76
    27.3000        88
    27.3200        92
    27.3400        80
    27.3600        88
    27.3800        72
    27.4000        84
    27.4200        84
    27.4400        78
    27.4600        76
    27.4800        70
    27.5000        74
    27.5200        84
    27.5400        76
    27.5600        74
    27.5800        70
    27.6000        72
    27.6200        68
    27.6400        80
    27.6600        54
    27.6800        82
    27.7000        72
    27.7200        66
    27.7400        64
    27.7600        66
    27.7800        68
    27.8000        54
    27.8200        68
    27.8400        62
    27.8600        64
    27.8800        64
    27.9000        72
    27.9200        70
    27.9400        64
    27.9600        62
    27.9800        52
    28.0000        54
    28.0200        58
    28.0400        62
    28.0600        68
    28.0800        74
    28.1000        56
    28.1200        66
    28.1400        70
    28.1600        48
    28.1800        70
    28.2000        68
    28.2200        76
    28.2400        80
    28.2600        46
    28.2800        60
    28.3000        76
    28.3200        52
    28.3400        74
    28.3600        70
    28.3800        74
    28.4000        68
    28.4200        74
    28.4400        60
    28.4600        62
    28.4800        48
    28.5000        48
    28.5200        76
    28.5400        38
    28.5600        52
    28.5800        54
    28.6000        60
    28.6200        52
    28.6400        50
    28.6600        48
    28.6800        54
    28.7000        52
    28.7200        62
    28.7400        58
    28.7600        58
    28.7800        48
    28.8000        50
    28.8200        44
    28.8400        46
    28.8600        68
    28.8800        46
    28.9000        50
    28.9200        54
    28.9400        62
    28.9600        40
    28.9800        52
    29.0000        60
    29.0200        50
    29.0400        52
    29.0600        48
    29.0800        44
    29.1000        58
    29.1200        52
    29.1400        64
    29.1600        48
    29.1800        38
    29.2000        48
    29.2200        44
    29.2400        34
    29.2600        56
    29.2800        58
    29.3000        42
    29.3200        48
    29.3400        54
    29.3600        44
    29.3800        48
    29.4000        50
    29.4200        44
    29.4400        44
    29.4600        42
    29.4800        66
    29.5000        50
    29.5200        38
    29.5400        58
    29.5600        40
    29.5800        50
    29.6000        32
    29.6200        48
    29.6400        46
    29.6600        46
    29.6800        48
    29.7000        50
    29.7200        58
    29.7400        44
    29.7600        62
    29.7800        48
    29.8000        56
    29.8200        52
    29.8400        40
    29.8600        42
    29.8800        42
    29.9000        52
    29.9200        46
    29.9400        40
    29.9600        54
    29.9800        54
    30.0000        48
    30.0200        32
    30.0400        46
    30.0600        50
    30.0800        48
    30.1000        72
    30.1200        64
    30.1400        54
    30.1600        68
    30.1800        64
    30.2000        68
    30.2200        64
    30.2400        66
    30.2600        68
    30.2800        60
    30.3000        50
    30.3200        62
    30.3400        48
    30.3600        64
    30.3800        36
    30.4000        68
    30.4200        46
    30.4400        56
    30.4600        50
    30.4800        70
    30.5000        44
    30.5200        48
    30.5400        56
    30.5600        48
    30.5800        38
    30.6000        48
    30.6200        48
    30.6400        54
    30.6600        48
    30.6800        42
    30.7000        42
    30.7200        52
    30.7400        48
    30.7600        48
    30.7800        50
    30.8000        54
    30.8200        48
    30.8400        36
    30.8600        50
    30.8800        46
    30.9000        28
    30.9200        44
    30.9400        50
    30.9600        36
    30.9800        46
    31.0000        46
    31.0200        44
    31.0400        48
    31.0600        38
    31.0800        42
    31.1000        50
    31.1200        44
    31.1400        54
    31.1600        44
    31.1800        34
    31.2000        48
    31.2200        46
    31.2400        38
    31.2600        40
    31.2800        28
    31.3000        38
    31.3200        54
    31.3400        46
    31.3600        38
    31.3800        32
    31.4000        46
    31.4200        40
    31.4400        38
    31.4600        38
    31.4800        46
    31.5000        36
    31.5200        38
    31.5400        52
    31.5600        42
    31.5800        50
    31.6000        50
    31.6200        52
    31.6400        48
    31.6600        48
    31.6800        46
    31.7000        42
    31.7200        50
    31.7400        44
    31.7600        40
    31.7800        54
    31.8000        56
    31.8200        42
    31.8400        44
    31.8600        44
    31.8800        50
    31.9000        32
    31.9200        38
    31.9400        40
    31.9600        54
    31.9800        50
    32.0000        56
    32.0200        30
    32.0400        60
    32.0600        54
    32.0800        48
    32.1000        54
    32.1200        52
    32.1400        50
    32.1600        38
    32.1800        40
    32.2000        60
    32.2200        38
    32.2400        40
    32.2600        50
    32.2800        34
    32.3000        44
    32.3200        44
    32.3400        42
    32.3600        48
    32.3800        40
    32.4000        38
    32.4200        44
    32.4400        38
    32.4600        40
    32.4800        30
    32.5000        48
    32.5200        54
    32.5400        44
    32.5600        54
    32.5800        46
    32.6000        44
    32.6200        50
    32.6400        38
    32.6600        48
    32.6800        38
    32.7000        42
    32.7200        58
    32.7400        44
    32.7600        42
    32.7800        60
    32.8000        52
    32.8200        52
    32.8400        56
    32.8600        44
    32.8800        48
    32.9000        50
    32.9200        38
    32.9400        42
    32.9600        58
    32.9800        58
    33.0000        48
    33.0200        48
    33.0400        48
    33.0600        42
    33.0800        44
    33.1000        50
    33.1200        54
    33.1400        50
    33.1600        48
    33.1800        38
    33.2000        46
    33.2200        58
    33.2400        50
    33.2600        46
    33.2800        44
    33.3000        50
    33.3200        56
    33.3400        56
    33.3600        50
    33.3800        66
    33.4000        52
    33.4200        56
    33.4400        64
    33.4600        66
    33.4800        60
    33.5000        68
    33.5200        60
    33.5400        74
    33.5600        82
    33.5800        78
    33.6000        92
    33.6200        82
    33.6400        86
    33.6600        90
    33.6800       122
    33.7000       118
    33.7200       102
    33.7400       120
    33.7600       114
    33.7800       108
    33.8000        92
    33.8200       108
    33.8400        86
    33.8600        64
    33.8800        92
    33.9000        66
    33.9200        90
    33.9400        78
    33.9600        78
    33.9800        70
    34.0000        64
    34.0200        66
    34.0400        64
    34.0600        68
    34.0800        58
    34.1000        58
    34.1200        52
    34.1400        60
    34.1600        52
    34.1800        48
    34.2000        44
    34.2200        58
    34.2400        62
    34.2600        44
    34.2800        66
    34.3000        54
    34.3200        44
    34.3400        50
    34.3600        50
    34.3800        48
    34.4000        50
    34.4200        50
    34.4400        48
    34.4600        50
    34.4800        54
    34.5000        40
    34.5200        48
    34.5400        48
    34.5600        50
    34.5800        56
    34.6000        48
    34.6200        54
    34.6400        46
    34.6600        56
    34.6800        44
    34.7000        56
    34.7200        48
    34.7400        40
    34.7600        48
    34.7800        60
    34.8000        56
    34.8200        54
    34.8400        50
    34.8600        54
    34.8800        48
    34.9000        52
    34.9200        58
    34.9400        42
    34.9600        62
    34.9800        66
    35.0000        46
    35.0200        50
    35.0400        64
    35.0600        68
    35.0800        56
    35.1000        64
    35.1200        64
    35.1400        68
    35.1600        68
    35.1800        68
    35.2000        80
    35.2200        80
    35.2400        82
    35.2600       108
    35.2800        80
    35.3000       106
    35.3200       110
    35.3400       116
    35.3600       144
    35.3800       152
    35.4000       196
    35.4200       188
    35.4400       220
    35.4600       296
    35.4800       422
    35.5000       462
    35.5200       604
    35.5400       814
    35.5600      1072
    35.5800      1516
    35.6000      2006
    35.6200      2364
    35.6400      2700
    35.6600      2752
    35.6800      2406
    35.7000      2046
    35.7200      1756
    35.7400      1538
    35.7600      1216
    35.7800       934
    35.8000       624
    35.8200       398
    35.8400       282
    35.8600       198
    35.8800       174
    35.9000       126
    35.9200       144
    35.9400       124
    35.9600       112
    35.9800        98
    36.0000       100
    36.0200        66
    36.0400        66
    36.0600        82
    36.0800        90
    36.1000        58
    36.1200        76
    36.1400        68
    36.1600        74
    36.1800        50
    36.2000        68
    36.2200        74
    36.2400        72
    36.2600        62
    36.2800        66
    36.3000        80
    36.3200        72
    36.3400        90
    36.3600        76
    36.3800        70
    36.4000        86
    36.4200        90
    36.4400        86
    36.4600        82
    36.4800        78
    36.5000        90
    36.5200        88
    36.5400        74
    36.5600        80
    36.5800        86
    36.6000        62
    36.6200        62
    36.6400        62
    36.6600        60
    36.6800        66
    36.7000        60
    36.7200        50
    36.7400        50
    36.7600        54
    36.7800        64
    36.8000        56
    36.8200        66
    36.8400        28
    36.8600        40
    36.8800        46
    36.9000        56
    36.9200        52
    36.9400        46
    36.9600        40
    36.9800        42
    37.0000        50
    37.0200        32
    37.0400        32
    37.0600        44
    37.0800        38
    37.1000        42
    37.1200        42
    37.1400        36
    37.1600        34
    37.1800        40
    37.2000        52
    37.2200        38
    37.2400        46
    37.2600        34
    37.2800        34
    37.3000        40
    37.3200        24
    37.3400        32
    37.3600        34
    37.3800        32
    37.4000        32
    37.4200        36
    37.4400        42
    37.4600        38
    37.4800        36
    37.5000        32
    37.5200        38
    37.5400        30
    37.5600        36
    37.5800        36
    37.6000        44
    37.6200        26
    37.6400        38
    37.6600        34
    37.6800        36
    37.7000        18
    37.7200        28
    37.7400        26
    37.7600        30
    37.7800        32
    37.8000        38
    37.8200        34
    37.8400        38
    37.8600        42
    37.8800        40
    37.9000        28
    37.9200        36
    37.9400        28
    37.9600        20
    37.9800        38
    38.0000        40
    38.0200        40
    38.0400        34
    38.0600        50
    38.0800        30
    38.1000        32
    38.1200        32
    38.1400        24
    38.1600        42
    38.1800        36
    38.2000        34
    38.2200        34
    38.2400        34
    38.2600        30
    38.2800        36
    38.3000        24
    38.3200        40
    38.3400        24
    38.3600        24
    38.3800        38
    38.4000        22
    38.4200        38
    38.4400        40
    38.4600        38
    38.4800        28
    38.5000        38
    38.5200        36
    38.5400        26
    38.5600        32
    38.5800        40
    38.6000        46
    38.6200        34
    38.6400        40
    38.6600        30
    38.6800        38
    38.7000        50
    38.7200        40
    38.7400        36
    38.7600        36
    38.7800        40
    38.8000        34
    38.8200        38
    38.8400        34
    38.8600        34
    38.8800        38
    38.9000        28
    38.9200        28
    38.9400        38
    38.9600        28
    38.9800        36
    39.0000        42
    39.0200        36
    39.0400        32
    39.0600        44
    39.0800        26
    39.1000        42
    39.1200        36
    39.1400        36
    39.1600        44
    39.1800        52
    39.2000        40
    39.2200        48
    39.2400        46
    39.2600        46
    39.2800        52
    39.3000        42
    39.3200        54
    39.3400        36
    39.3600        54
    39.3800        42
    39.4000        42
    39.4200        40
    39.4400        46
    39.4600        40
    39.4800        46
    39.5000        48
    39.5200        48
    39.5400        48
    39.5600        32
    39.5800        42
    39.6000        46
    39.6200        32
    39.6400        36
    39.6600        44
    39.6800        36
    39.7000        40
    39.7200        34
    39.7400        44
    39.7600        46
    39.7800        36
    39.8000        50
    39.8200        36
    39.8400        42
    39.8600        50
    39.8800        38
    39.9000        32
    39.9200        36
    39.9400        26
    39.9600        30
    39.9800        26
    40.0000        24
    40.0200        44
    40.0400        34
    40.0600        42
    40.0800        40
    40.1000        40
    40.1200        30
    40.1400        46
    40.1600        22
    40.1800        24
    40.2000        30
    40.2200        40
    40.2400        36
    40.2600        38
    40.2800        38
    40.3000        42
    40.3200        34
    40.3400        26
    40.3600        40
    40.3800        36
    40.4000        32
    40.4200        30
    40.4400        30
    40.4600        38
    40.4800        46
    40.5000        28
    40.5200        30
    40.5400        40
    40.5600        34
    40.5800        34
    40.6000        48
    40.6200        52
    40.6400        38
    40.6600        46
    40.6800        44
    40.7000        42
    40.7200        48
    40.7400        26
    40.7600        44
    40.7800        46
    40.8000        50
    40.8200        56
    40.8400        50
    40.8600        56
    40.8800        50
    40.9000        60
    40.9200        38
    40.9400        52
    40.9600        48
    40.9800        60
    41.0000        56
    41.0200        50
    41.0400        46
    41.0600        70
    41.0800        62
    41.1000        68
    41.1200        66
    41.1400        62
    41.1600        62
    41.1800        62
    41.2000        56
    41.2200        74
    41.2400        60
    41.2600        58
    41.2800        48
    41.3000        66
    41.3200        58
    41.3400        50
    41.3600        44
    41.3800        48
    41.4000        48
    41.4200        62
    41.4400        46
    41.4600        42
    41.4800        42
    41.5000        50
    41.5200        42
    41.5400        52
    41.5600        46
    41.5800        46
    41.6000        50
    41.6200        28
    41.6400        38
    41.6600        38
    41.6800        48
    41.7000        42
    41.7200        36
    41.7400        26
    41.7600        44
    41.7800        28
    41.8000        26
    41.8200        30
    41.8400        36
    41.8600        26
    41.8800        26
    41.9000        38
    41.9200        26
    41.9400        38
    41.9600        36
    41.9800        32
    42.0000        30
    42.0200        32
    42.0400        28
    42.0600        32
    42.0800        28
    42.1000        40
    42.1200        36
    42.1400        42
    42.1600        30
    42.1800        32
    42.2000        34
    42.2200        30
    42.2400        24
    42.2600        40
    42.2800        32
    42.3000        44
    42.3200        36
    42.3400        38
    42.3600        24
    42.3800        24
    42.4000        22
    42.4200        36
    42.4400        28
    42.4600        32
    42.4800        30
    42.5000        32
    42.5200        26
    42.5400        24
    42.5600        36
    42.5800        32
    42.6000        42
    42.6200        48
    42.6400        32
    42.6600        30
    42.6800        34
    42.7000        26
    42.7200        36
    42.7400        30
    42.7600        34
    42.7800        22
    42.8000        32
    42.8200        42
    42.8400        34
    42.8600        34
    42.8800        30
    42.9000        34
    42.9200        30
    42.9400        34
    42.9600        36
    42.9800        44
    43.0000        30
    43.0200        44
    43.0400        42
    43.0600        46
    43.0800        34
    43.1000        24
    43.1200        32
    43.1400        38
    43.1600        32
    43.1800        30
    43.2000        28
    43.2200        20
    43.2400        32
    43.2600        28
    43.2800        30
    43.3000        30
    43.3200        34
    43.3400        32
    43.3600        38
    43.3800        30
    43.4000        26
    43.4200        32
    43.4400        38
    43.4600        32
    43.4800        34
    43.5000        36
    43.5200        32
    43.5400        38
    43.5600        40
    43.5800        40
    43.6000        30
    43.6200        38
    43.6400        26
    43.6600        42
    43.6800        34
    43.7000        28
    43.7200        32
    43.7400        30
    43.7600        26
    43.7800        30
    43.8000        34
    43.8200        32
    43.8400        26
    43.8600        42
    43.8800        30
    43.9000        28
    43.9200        34
    43.9400        26
    43.9600        28
    43.9800        34
    44.0000        40
    44.0200        30
    44.0400        42
    44.0600        56
    44.0800        36
    44.1000        38
    44.1200        26
    44.1400        38
    44.1600        40
    44.1800        44
    44.2000        46
    44.2200        32
    44.2400        30
    44.2600        40
    44.2800        32
    44.3000        38
    44.3200        38
    44.3400        28
    44.3600        42
    44.3800        34
    44.4000        42
    44.4200        42
    44.4400        38
    44.4600        42
    44.4800        40
    44.5000        50
    44.5200        52
    44.5400        54
    44.5600        46
    44.5800        42
    44.6000        44
    44.6200        52
    44.6400        66
    44.6600        56
    44.6800        76
    44.7000        82
    44.7200        66
    44.7400        72
    44.7600        78
    44.7800        78
    44.8000       116
    44.8200       110
    44.8400       146
    44.8600       166
    44.8800       190
    44.9000       244
    44.9200       366
    44.9400       432
    44.9600       562
    44.9800       762
    45.0000       838
    45.0200       848
    45.0400       760
    45.0600       712
    45.0800       606
    45.1000       532
    45.1200       492
    45.1400       450
    45.1600       418
    45.1800       304
    45.2000       230
    45.2200       150
    45.2400       122
    45.2600       112
    45.2800        94
    45.3000        70
    45.3200        74
    45.3400        66
    45.3600        70
    45.3800        64
    45.4000        80
    45.4200        54
    45.4400        38
    45.4600        44
    45.4800        36
    45.5000        54
    45.5200        42
    45.5400        34
    45.5600        40
    45.5800        50
    45.6000        44
    45.6200        40
    45.6400        42
    45.6600        52
    45.6800        46
    45.7000        26
    45.7200        40
    45.7400        34
    45.7600        40
    45.7800        40
    45.8000        34
    45.8200        30
    45.8400        36
    45.8600        38
    45.8800        28
    45.9000        30
    45.9200        40
    45.9400        40
    45.9600        30
    45.9800        48
    46.0000        30
    46.0200        26
    46.0400        30
    46.0600        34
    46.0800        36
    46.1000        26
    46.1200        30
    46.1400        40
    46.1600        20
    46.1800        26
    46.2000        34
    46.2200        34
    46.2400        26
    46.2600        44
    46.2800        40
    46.3000        38
    46.3200        28
    46.3400        34
    46.3600        34
    46.3800        36
    46.4000        32
    46.4200        22
    46.4400        38
    46.4600        38
    46.4800        34
    46.5000        32
    46.5200        32
    46.5400        34
    46.5600        30
    46.5800        30
    46.6000        42
    46.6200        42
    46.6400        36
    46.6600        34
    46.6800        30
    46.7000        34
    46.7200        36
    46.7400        34
    46.7600        40
    46.7800        34
    46.8000        30
    46.8200        40
    46.8400        28
    46.8600        28
    46.8800        54
    46.9000        38
    46.9200        42
    46.9400        46
    46.9600        36
    46.9800        36
    47.0000        28
    47.0200        48
    47.0400        46
    47.0600        40
    47.0800        42
    47.1000        36
    47.1200        44
    47.1400        42
    47.1600        40
    47.1800        32
    47.2000        48
    47.2200        38
    47.2400        28
    47.2600        30
    47.2800        44
    47.3000        60
    47.3200        34
    47.3400        40
    47.3600        44
    47.3800        28
    47.4000        46
    47.4200        42
    47.4400        44
    47.4600        38
    47.4800        38
    47.5000        36
    47.5200        32
    47.5400        40
    47.5600        30
    47.5800        32
    47.6000        32
    47.6200        26
    47.6400        44
    47.6600        26
    47.6800        42
    47.7000        28
    47.7200        30
    47.7400        40
    47.7600        32
    47.7800        34
    47.8000        38
    47.8200        26
    47.8400        28
    47.8600        24
    47.8800        24
    47.9000        34
    47.9200        38
    47.9400        38
    47.9600        30
    47.9800        34
    48.0000        26
    48.0200        34
    48.0400        24
    48.0600        30
    48.0800        24
    48.1000        26
    48.1200        32
    48.1400        34
    48.1600        32
    48.1800        46
    48.2000        32
    48.2200        20
    48.2400        34
    48.2600        30
    48.2800        30
    48.3000        32
    48.3200        20
    48.3400        34
    48.3600        32
    48.3800        30
    48.4000        34
    48.4200        24
    48.4400        38
    48.4600        30
    48.4800        38
    48.5000        34
    48.5200        34
    48.5400        26
    48.5600        32
    48.5800        44
    48.6000        34
    48.6200        26
    48.6400        30
    48.6600        38
    48.6800        42
    48.7000        32
    48.7200        38
    48.7400        26
    48.7600        30
    48.7800        34
    48.8000        22
    48.8200        30
    48.8400        30
    48.8600        30
    48.8800        38
    48.9000        30
    48.9200        28
    48.9400        26
    48.9600        30
    48.9800        30
    49.0000        36
    49.0200        32
    49.0400        38
    49.0600        30
    49.0800        30
    49.1000        42
    49.1200        30
    49.1400        26
    49.1600        32
    49.1800        24
    49.2000        26
    49.2200        32
    49.2400        20
    49.2600        34
    49.2800        28
    49.3000        36
    49.3200        32
    49.3400        24
    49.3600        24
    49.3800        32
    49.4000        38
    49.4200        18
    49.4400        26
    49.4600        30
    49.4800        36
    49.5000        30
    49.5200        24
    49.5400        26
    49.5600        40
    49.5800        26
    49.6000        42
    49.6200        28
    49.6400        42
    49.6600        44
    49.6800        32
    49.7000        28
    49.7200        22
    49.7400        24
    49.7600        34
    49.7800        36
    49.8000        24
    49.8200        32
    49.8400        30
    49.8600        26
    49.8800        28
    49.9000        30
    49.9200        26
    49.9400        34
    49.9600        34
    49.9800        26
    50.0000        36
    50.0200        26
    50.0400        24
    50.0600        28
    50.0800        26
    50.1000        34
    50.1200        24
    50.1400        32
    50.1600        32
    50.1800        26
    50.2000        26
    50.2200        28
    50.2400        32
    50.2600        36
    50.2800        36
    50.3000        26
    50.3200        28
    50.3400        32
    50.3600        28
    50.3800        36
    50.4000        30
    50.4200        34
    50.4400        32
    50.4600        40
    50.4800        34
    50.5000        36
    50.5200        30
    50.5400        16
    50.5600        30
    50.5800        22
    50.6000        28
    50.6200        24
    50.6400        38
    50.6600        34
    50.6800        28
    50.7000        34
    50.7200        26
    50.7400        32
    50.7600        36
    50.7800        30
    50.8000        28
    50.8200        32
    50.8400        30
    50.8600        40
    50.8800        32
    50.9000        28
    50.9200        36
    50.9400        32
    50.9600        32
    50.9800        22
    51.0000        32
    51.0200        24
    51.0400        32
    51.0600        24
    51.0800        22
    51.1000        36
    51.1200        32
    51.1400        16
    51.1600        20
    51.1800        30
    51.2000        32
    51.2200        26
    51.2400        30
    51.2600        30
    51.2800        34
    51.3000        32
    51.3200        32
    51.3400        36
    51.3600        26
    51.3800        28
    51.4000        30
    51.4200        32
    51.4400        30
    51.4600        36
    51.4800        28
    51.5000        34
    51.5200        24
    51.5400        32
    51.5600        34
    51.5800        32
    51.6000        48
    51.6200        32
    51.6400        24
    51.6600        32
    51.6800        32
    51.7000        38
    51.7200        34
    51.7400        30
    51.7600        28
    51.7800        40
    51.8000        32
    51.8200        28
    51.8400        42
    51.8600        28
    51.8800        28
    51.9000        36
    51.9200        24
    51.9400        22
    51.9600        30
    51.9800        28
    52.0000        36
    52.0200        36
    52.0400        40
    52.0600        34
    52.0800        42
    52.1000        32
    52.1200        38
    52.1400        26
    52.1600        22
    52.1800        30
    52.2000        42
    52.2200        38
    52.2400        44
    52.2600        28
    52.2800        30
    52.3000        32
    52.3200        40
    52.3400        40
    52.3600        42
    52.3800        32
    52.4000        40
    52.4200        22
    52.4400        28
    52.4600        32
    52.4800        30
    52.5000        30
    52.5200        34
    52.5400        44
    52.5600        26
    52.5800        32
    52.6000        34
    52.6200        32
    52.6400        36
    52.6600        42
    52.6800        44
    52.7000        28
    52.7200        28
    52.7400        36
    52.7600        32
    52.7800        30
    52.8000        28
    52.8200        50
    52.8400        36
    52.8600        18
    52.8800        36
    52.9000        36
    52.9200        38
    52.9400        38
    52.9600        34
    52.9800        36
    53.0000        32
    53.0200        28
    53.0400        36
    53.0600        40
    53.0800        28
    53.1000        34
    53.1200        36
    53.1400        40
    53.1600        26
    53.1800        38
    53.2000        34
    53.2200        44
    53.2400        30
    53.2600        38
    53.2800        34
    53.3000        44
    53.3200        38
    53.3400        38
    53.3600        44
    53.3800        32
    53.4000        40
    53.4200        28
    53.4400        34
    53.4600        44
    53.4800        44
    53.5000        24
    53.5200        42
    53.5400        46
    53.5600        30
    53.5800        38
    53.6000        48
    53.6200        54
    53.6400        42
    53.6600        62
    53.6800        44
    53.7000        36
    53.7200        48
    53.7400        38
    53.7600        46
    53.7800        40
    53.8000        46
    53.8200        50
    53.8400        42
    53.8600        38
    53.8800        42
    53.9000        56
    53.9200        42
    53.9400        60
    53.9600        48
    53.9800        58
    54.0000        50
    54.0200        38
    54.0400        46
    54.0600        62
    54.0800        38
    54.1000        64
    54.1200        64
    54.1400        60
    54.1600        60
    54.1800        60
    54.2000        74
    54.2200        58
    54.2400        62
    54.2600        78
    54.2800        76
    54.3000        76
    54.3200        76
    54.3400        86
    54.3600        90
    54.3800        90
    54.4000        86
    54.4200       104
    54.4400       108
    54.4600       108
    54.4800       130
    54.5000       134
    54.5200       120
    54.5400       162
    54.5600       202
    54.5800       226
    54.6000       258
    54.6200       354
    54.6400       476
    54.6600       596
    54.6800       652
    54.7000       780
    54.7200       746
    54.7400       744
    54.7600       610
    54.7800       488
    54.8000       448
    54.8200       466
    54.8400       450
    54.8600       438
    54.8800       388
    54.9000       304
    54.9200       250
    54.9400       196
    54.9600       122
    54.9800       126
    55.0000       102
    55.0200        94
    55.0400        68
    55.0600        76
    55.0800        74
    55.1000        66
    55.1200        56
    55.1400        40
    55.1600        52
    55.1800        58
    55.2000        44
    55.2200        64
    55.2400        52
    55.2600        50
    55.2800        44
    55.3000        40
    55.3200        50
    55.3400        48
    55.3600        48
    55.3800        38
    55.4000        50
    55.4200        52
    55.4400        40
    55.4600        52
    55.4800        36
    55.5000        24
    55.5200        46
    55.5400        40
    55.5600        54
    55.5800        52
    55.6000        32
    55.6200        50
    55.6400        36
    55.6600        38
    55.6800        38
    55.7000        36
    55.7200        40
    55.7400        40
    55.7600        38
    55.7800        30
    55.8000        36
    55.8200        38
    55.8400        34
    55.8600        40
    55.8800        40
    55.9000        32
    55.9200        46
    55.9400        36
    55.9600        36
    55.9800        42
    56.0000        38
    56.0200        30
    56.0400        28
    56.0600        42
    56.0800        42
    56.1000        36
    56.1200        36
    56.1400        38
    56.1600        30
    56.1800        36
    56.2000        28
    56.2200        54
    56.2400        34
    56.2600        44
    56.2800        38
    56.3000        36
    56.3200        42
    56.3400        36
    56.3600        32
    56.3800        26
    56.4000        34
    56.4200        40
    56.4400        36
    56.4600        28
    56.4800        28
    56.5000        30
    56.5200        26
    56.5400        28
    56.5600        32
    56.5800        26
    56.6000        38
    56.6200        36
    56.6400        34
    56.6600        38
    56.6800        46
    56.7000        42
    56.7200        34
    56.7400        28
    56.7600        40
    56.7800        34
    56.8000        30
    56.8200        40
    56.8400        34
    56.8600        22
    56.8800        48
    56.9000        44
    56.9200        38
    56.9400        30
    56.9600        42
    56.9800        34
    57.0000        34
    57.0200        30
    57.0400        28
    57.0600        30
    57.0800        28
    57.1000        34
    57.1200        36
    57.1400        38
    57.1600        30
    57.1800        30
    57.2000        42
    57.2200        30
    57.2400        40
    57.2600        38
    57.2800        30
    57.3000        24
    57.3200        40
    57.3400        24
    57.3600        32
    57.3800        36
    57.4000        42
    57.4200        36
    57.4400        36
    57.4600        32
    57.4800        32
    57.5000        26
    57.5200        32
    57.5400        32
    57.5600        20
    57.5800        36
    57.6000        32
    57.6200        38
    57.6400        24
    57.6600        32
    57.6800        30
    57.7000        34
    57.7200        44
    57.7400        36
    57.7600        34
    57.7800        42
    57.8000        30
    57.8200        36
    57.8400        38
    57.8600        30
    57.8800        38
    57.9000        30
    57.9200        36
    57.9400        26
    57.9600        42
    57.9800        42
    58.0000        38
    58.0200        32
    58.0400        32
    58.0600        36
    58.0800        32
    58.1000        38
    58.1200        34
    58.1400        36
    58.1600        36
    58.1800        32
    58.2000        20
    58.2200        30
    58.2400        28
    58.2600        38
    58.2800        32
    58.3000        24
    58.3200        44
    58.3400        26
    58.3600        24
    58.3800        40
    58.4000        26
    58.4200        20
    58.4400        32
    58.4600        26
    58.4800        34
    58.5000        26
    58.5200        32
    58.5400        24
    58.5600        28
    58.5800        30
    58.6000        34
    58.6200        36
    58.6400        42
    58.6600        32
    58.6800        36
    58.7000        40
    58.7200        38
    58.7400        32
    58.7600        38
    58.7800        24
    58.8000        38
    58.8200        34
    58.8400        28
    58.8600        30
    58.8800        34
    58.9000        44
    58.9200        42
    58.9400        40
    58.9600        38
    58.9800        38
    59.0000        40
    59.0200        50
    59.0400        44
    59.0600        42
    59.0800        38
    59.1000        40
    59.1200        42
    59.1400        38
    59.1600        58
    59.1800        40
    59.2000        60
    59.2200        60
    59.2400        42
    59.2600        52
    59.2800        72
    59.3000        60
    59.3200        64
    59.3400        82
    59.3600        62
    59.3800        70
    59.4000        64
    59.4200        80
    59.4400        68
    59.4600        64
    59.4800        60
    59.5000        72
    59.5200        64
    59.5400        70
    59.5600        60
    59.5800        70
    59.6000        72
    59.6200        76
    59.6400        50
    59.6600        68
    59.6800        64
    59.7000        54
    59.7200        88
    59.7400        58
    59.7600        76
    59.7800        74
    59.8000        86
    59.8200        70
    59.8400        60
    59.8600        56
    59.8800        66
    59.9000        66
    59.9200        66
    59.9400        60
    59.9600        70
    59.9800        76
    60.0000        60
    60.0200        84
    60.0400        60
    60.0600        52
    60.0800        54
    60.1000        60
    60.1200        56
    60.1400        54
    60.1600        48
    60.1800        58
    60.2000        72
    60.2200        52
    60.2400        56
    60.2600        50
    60.2800        56
    60.3000        56
    60.3200        34
    60.3400        52
    60.3600        54
    60.3800        50
    60.4000        52
    60.4200        38
    60.4400        48
    60.4600        48
    60.4800        44
    60.5000        50
    60.5200        44
    60.5400        40
    60.5600        40
    60.5800        42
    60.6000        40
    60.6200        40
    60.6400        38
    60.6600        48
    60.6800        46
    60.7000        42
    60.7200        40
    60.7400        40
    60.7600        52
    60.7800        44
    60.8000        30
    60.8200        38
    60.8400        40
    60.8600        34
    60.8800        40
    60.9000        30
    60.9200        30
    60.9400        38
    60.9600        38
    60.9800        34
    61.0000        36
    61.0200        40
    61.0400        38
    61.0600        42
    61.0800        36
    61.1000        40
    61.1200        44
    61.1400        36
    61.1600        40
    61.1800        26
    61.2000        38
    61.2200        42
    61.2400        30
    61.2600        38
    61.2800        28
    61.3000        30
    61.3200        42
    61.3400        24
    61.3600        44
    61.3800        36
    61.4000        32
    61.4200        32
    61.4400        44
    61.4600        40
    61.4800        30
    61.5000        30
    61.5200        18
    61.5400        22
    61.5600        38
    61.5800        22
    61.6000        38
    61.6200        30
    61.6400        40
    61.6600        40
    61.6800        38
    61.7000        38
    61.7200        32
    61.7400        32
    61.7600        48
    61.7800        44
    61.8000        40
    61.8200        44
    61.8400        36
    61.8600        34
    61.8800        48
    61.9000        32
    61.9200        46
    61.9400        52
    61.9600        42
    61.9800        46
    62.0000        38
    62.0200        46
    62.0400        42
    62.0600        44
    62.0800        26
    62.1000        40
    62.1200        34
    62.1400        44
    62.1600        40
    62.1800        46
    62.2000        44
    62.2200        28
    62.2400        44
    62.2600        42
    62.2800        34
    62.3000        38
    62.3200        38
    62.3400        34
    62.3600        40
    62.3800        36
    62.4000        42
    62.4200        46
    62.4400        42
    62.4600        46
    62.4800        40
    62.5000        52
    62.5200        54
    62.5400        48
    62.5600        40
    62.5800        64
    62.6000        42
    62.6200        48
    62.6400        32
    62.6600        38
    62.6800        44
    62.7000        42
    62.7200        34
    62.7400        34
    62.7600        30
    62.7800        44
    62.8000        32
    62.8200        44
    62.8400        54
    62.8600        48
    62.8800        34
    62.9000        44
    62.9200        44
    62.9400        42
    62.9600        28
    62.9800        38
    63.0000        46
    63.0200        38
    63.0400        34
    63.0600        44
    63.0800        42
    63.1000        46
    63.1200        52
    63.1400        50
    63.1600        30
    63.1800        28
    63.2000        44
    63.2200        30
    63.2400        44
    63.2600        34
    63.2800        38
    63.3000        40
    63.3200        36
    63.3400        42
    63.3600        42
    63.3800        40
    63.4000        34
    63.4200        28
    63.4400        36
    63.4600        32
    63.4800        30
    63.5000        30
    63.5200        32
    63.5400        28
    63.5600        30
    63.5800        30
    63.6000        38
    63.6200        36
    63.6400        34
    63.6600        32
    63.6800        38
    63.7000        24
    63.7200        46
    63.7400        42
    63.7600        36
    63.7800        46
    63.8000        40
    63.8200        40
    63.8400        34
    63.8600        38
    63.8800        32
    63.9000        38
    63.9200        40
    63.9400        30
    63.9600        44
    63.9800        28
    64.0000        18
    64.0200        42
    64.0400        36
    64.0600        48
    64.0800        36
    64.1000        46
    64.1200        30
    64.1400        34
    64.1600        44
    64.1800        32
    64.2000        50
    64.2200        42
    64.2400        34
    64.2600        48
    64.2800        38
    64.3000        36
    64.3200        34
    64.3400        30
    64.3600        46
    64.3800        32
    64.4000        30
    64.4200        42
    64.4400        52
    64.4600        52
    64.4800        46
    64.5000        50
    64.5200        68
    64.5400        62
    64.5600        56
    64.5800        50
    64.6000        88
    64.6200        78
    64.6400        88
    64.6600        98
    64.6800        90
    64.7000       122
    64.7200       160
    64.7400       188
    64.7600       238
    64.7800       378
    64.8000       450
    64.8200       568
    64.8400       632
    64.8600       650
    64.8800       560
    64.9000       486
    64.9200       370
    64.9400       328
    64.9600       316
    64.9800       328
    65.0000       382
